Timestamp,Filename,1/Fp1,2/Fp2,3/Cz,4/Pz,5/P7,6/P8,7/O1,8/O2,9/CP5,10/CP6,11/CP1,12/CP2,13/PO3,14/PO4,15/P3,16/P4
0.05500006675720215,car (1).jpg,0.07411170144220608,0.08634525821748473,0.08208973194238328,-0.06680679372630044,0.08493347733419863,0.08449413144518512,0.08510815621711686,0.0862548007076741,0.08315264679821095,0.08620770558210678,0.08168427129796402,0.08364755912394037,0.08289097492587268,0.08687296055233008,0.08458168322821656,-0.06898186433099084
0.0559999942779541,car (1).jpg,0.07405083764205428,0.0863354234499244,0.0820822217562463,-0.06683015129925624,0.08496179699442351,0.08448726945963735,0.08510370821997025,0.08625477835592965,0.08314180620215013,0.0861890865789755,0.08157836873273477,0.0836312870539769,0.08287892733561127,0.08689676516017499,0.0845645617919638,-0.06834606895995962
0.0559999942779541,car (1).jpg,0.07409835745076626,0.08633589283655796,0.08207755024165514,-0.0665425514033498,0.08494485437212639,0.08448230737236827,0.0850967344757002,0.08624456360871358,0.08314743884175287,0.08620567157336134,0.08168391367005273,0.0836451451355392,0.08288292829786877,0.08687144063370712,0.08457752580374787,-0.06887131260291489
0.0559999942779541,car (1).jpg,0.07410837103228224,0.08634963915939797,0.08209596807908631,-0.06698793226336626,0.08494507788957094,0.0844992946981543,0.08511517466487582,0.08626264616997792,0.08315401025462273,0.0861993907331694,0.08161811013437631,0.08364181472561535,0.08289271836194019,0.08689412765432926,0.08457618469908056,-0.06862631513194026
0.0559999942779541,car (1).jpg,0.07407160241265326,0.08633220479872283,0.08207500214278723,-0.06653973508354843,0.0849640992241024,0.08448060863978966,0.08509724856582267,0.08624650821048119,0.08314198501610577,0.08619554623312309,0.08161679138145345,0.08363671852787954,0.08287729565826603,0.0868863045437699,0.08456798160886546,-0.06847193163298745
0.0559999942779541,car (1).jpg,0.07414066930302016,0.08634948269718679,0.08209223533776228,-0.06678779474351343,0.08493752299994504,0.08449690306149758,0.08511130781308505,0.08625862285597596,0.08315720655407983,0.08621141597168636,0.0816831313589968,0.0836510906995643,0.08289517705383027,0.086876000389576,0.0845856171352407,-0.0689886816130497
0.0559999942779541,car (1).jpg,0.07407023895624149,0.08633908913601507,0.08208459104115856,-0.0668211658979852,0.0849645015555026,0.0844908457387502,0.08510723979559419,0.08625882402167606,0.08314522601905179,0.08619255109936608,0.08156676817736247,0.08363414807726718,0.0828824142077463,0.08689962618346526,0.08456757927746526,-0.06835583667228659
0.0559999942779541,car (1).jpg,0.07410910863984926,0.08634000555753774,0.0820805230236677,-0.06653014618517711,0.08494907885182844,0.08448796236371546,0.08510133893505799,0.08625046446924978,0.08315119393482136,0.08620958312864102,0.08168029268745097,0.08364860965592977,0.08288681750140399,0.08687479339537542,0.08458125854507191,-0.06887149141687053
0.0559999942779541,car (1).jpg,0.0741107403171945,0.08635178492686568,0.08209800208783175,-0.06698605471683201,0.08494693308436073,0.08450378739878982,0.08511828155735511,0.08626749649852472,0.08315678187093518,0.0862023411634375,0.08162548621004656,0.0836440946035498,0.08289535586778592,0.08689645223575261,0.08457882220492628,-0.06862812562324114
0.0559999942779541,car (1).jpg,0.07406295228754906,0.08633455173189064,0.08207739377944395,-0.06654773700806343,0.08496633439854794,0.08448503428519182,0.08509999783039067,0.08625111266983898,0.08314638830976347,0.08619896605002475,0.08162984480021535,0.08363966895814764,0.0828816095449459,0.08689008198858285,0.08457207197810078,-0.06846071105727089
0.0559999942779541,car (1).jpg,0.07412763823600271,0.08635290251408845,0.08209576691338621,-0.06679436615638329,0.08494065224416879,0.08450170868655547,0.08511584521720948,0.0862628026321891,0.08316342033903841,0.08621669098337781,0.08171066870816573,0.08365620924904457,0.0829013684870444,0.0868808507181228,0.08459129447833234,-0.06900146681087814
0.0559999942779541,car (1).jpg,0.07406154412764837,0.08634715811576343,0.08209149773019525,-0.06684018723251667,0.08497046947127217,0.08449808770395371,0.085115085257898,0.08626539543454592,0.08315293737088887,0.08619910016049148,0.08159229386953043,0.08364092065583714,0.08289023731830565,0.08690617524459067,0.08457430715254631,-0.06835639546589797
0.0559999942779541,car (1).jpg,0.07409585405538727,0.08634729222623017,0.08208756382317112,-0.06654880989179729,0.08495493500887573,0.08449419850041849,0.08510855854851705,0.0862579076001534,0.08315968759771437,0.08621727212873365,0.08171346267622265,0.0836567456909115,0.08289533351604146,0.08688147656696756,0.08458908165563127,-0.0688696585738252
0.056999921798706055,car (1).jpg,0.07408586282561574,0.08635960803742504,0.08210624988153575,-0.06702756190628552,0.08495328097978604,0.0845114987506269,0.08512619407489229,0.08627487257419497,0.08316643782453988,0.08621137126819745,0.0816540740912049,0.08365323646703202,0.08290507887662397,0.08690344833176712,0.08458805347538632,-0.06864363773389312
0.056999921798706055,car (1).jpg,0.07402727890339839,0.08634286658082801,0.08208675916037073,-0.06657938707821215,0.08497563272424134,0.08449446672135195,0.08511027963284011,0.08626070156821031,0.08315751947850221,0.08620980664608557,0.08165675630053953,0.08365026368501946,0.082892561899729,0.086899760293932,0.08458242083578359,-0.06846681308350719
0.056999921798706055,car (1).jpg,0.07409717280831013,0.08636211143280403,0.08210609341932457,-0.06681823781946156,0.08495068817742922,0.0845123481169162,0.0851257917434921,0.08627422437360577,0.08317385860369904,0.08622672691663824,0.08174066474922476,0.0836662004788161,0.08291055505401553,0.08688927732578246,0.08460083867321476,-0.06901291090403926
0.056999921798706055,car (1).jpg,0.07403360444707924,0.08635308132804409,0.08210025961402173,-0.06688527070108302,0.08497873961672063,0.08450696134650247,0.08512248368531271,0.08627458200151705,0.08316254862100465,0.0862073926576844,0.08162953187579297,0.08364950372570798,0.08289839570503184,0.08691433363131686,0.08458284551892824,-0.06836046348338884
0.056999921798706055,car (1).jpg,0.07407106597078633,0.08635402010131121,0.08209587867210849,-0.066583209226514,0.08496479212818052,0.08450231218365577,0.08511649341779869,0.08626557424850156,0.08316827066758521,0.08622453644568162,0.081737043766623,0.08366421117355957,0.08290270959171171,0.08688878558740444,0.08459659184176825,-0.06887274311456003
0.056999921798706055,car (1).jpg,0.07407562572665521,0.08636765466542895,0.08211416239907293,-0.06707539463941987,0.08496235578803489,0.0845192995094418,0.08513426305464065,0.08628312036789898,0.08317484208045507,0.08621870264037879,0.08168179025432948,0.08366130544678038,0.08291270082148323,0.086910511483015,0.0845957648272234,-0.06866429074576982
0.056999921798706055,car (1).jpg,0.07403463262732418,0.08634992973207589,0.0820931741110294,-0.06661544044201856,0.08498276293072259,0.08449960762257668,0.08511557699627602,0.08626521662059028,0.0831629733041493,0.0862141428845099,0.08167828103045,0.0836558963246222,0.08289779220793154,0.0869040071253785,0.08458744997828603,-0.06847557496733367
0.056999921798706055,car (1).jpg,0.07411129911080588,0.08636908517707409,0.08211203898334968,-0.06683113477601227,0.08495708077634344,0.08451710903848518,0.08513106675518355,0.08627965584750841,0.0831789324496904,0.08623124196901821,0.08176324001112462,0.08367167665620764,0.0829161206383849,0.08689276419791749,0.08460604662967285,-0.06902131515995445
0.056999921798706055,car (1).jpg,0.07405526328745643,0.08635904924381366,0.0821047746664017,-0.06689052336103002,0.0849836570005008,0.08451076114305987,0.08512740106909288,0.0862798570132085,0.08316639312105097,0.08621052190190814,0.0816519730272261,0.08365361644668776,0.08290264253647835,0.08691625588134001,0.08458695823990801,-0.06836647610264732
0.056999921798706055,car (1).jpg,0.07409911741007774,0.08635837869148,0.08209898556458778,-0.06656014222623613,0.08496941893928277,0.08450537437264614,0.08512009204865599,0.08627033517007054,0.0831720257606537,0.08622786685560546,0.08176087072621235,0.08366787685965024,0.08290657644350248,0.08688983611939384,0.0846003692865812,-0.06886994914650311
0.056999921798706055,car (1).jpg,0.07411972571846553,0.08637170033117536,0.08211764927120796,-0.0670327698627436,0.0849672508200706,0.08452213818098762,0.08513830872038707,0.08628774717900123,0.08317991592644643,0.08622303887880312,0.08170856764418694,0.08366577579567144,0.08291750644654113,0.08691191964291568,0.08460074926623694,-0.06865997685908995
0.056999921798706055,car (1).jpg,0.07407795030807857,0.08635435537747804,0.08209670568665334,-0.06658050466543491,0.0849885073290476,0.08450313919820061,0.08512009204865599,0.0862714080538044,0.08316599078965077,0.08621586396883296,0.08169770469638166,0.08365752800196743,0.08289933447829896,0.08690358244223385,0.08458968515273156,-0.06845972758051486
0.056999921798706055,car (1).jpg,0.07415153225082544,0.08636937574975201,0.0821114801897383,-0.06680598906350005,0.08495940535776679,0.08451617026521806,0.0851308879412279,0.08627918646087485,0.08318051942354672,0.08623166665216286,0.08177910974968788,0.08367181076667438,0.08291594182442925,0.08689041726474968,0.08460665012677314,-0.06902625489547908
0.05800008773803711,car (1).jpg,0.07409504939258688,0.0863617761566372,0.08210660750944704,-0.06686564586945126,0.08498819440462523,0.08451230341342729,0.08512943507783831,0.08628119811787582,0.0831688294611966,0.08621181830308655,0.08165765037031775,0.08365455521995488,0.08290344719927874,0.08691703819239595,0.0845879640684085,-0.06837403099227321
0.05800008773803711,car (1).jpg,0.0741364448233181,0.08635889278160247,0.08209856088144313,-0.06655947167390247,0.08497207879687295,0.08450512850345714,0.08511977912423362,0.08626932934157006,0.0831749761909218,0.08622938677422842,0.08175441107206477,0.08366906150210637,0.08290753756851406,0.08689294301187313,0.0846016209842707,-0.06888168381234215
0.05800008773803711,car (1).jpg,0.07414167513152065,0.08637547777598831,0.08211975033518676,-0.0670369719907012,0.08497156470675048,0.0845256027013782,0.08514070035704378,0.08628982589123557,0.08318250872880324,0.0862244470387038,0.08169446369343564,0.08366673692068302,0.08291840051631934,0.08691531710807289,0.08460153157729287,-0.06869191750191658
0.05800008773803711,car (1).jpg,0.07408984143612879,0.08635663525541248,0.0820975774046871,-0.06658430446199232,0.0849919047942048,0.08450517320694605,0.0851215896155345,0.08627259269626053,0.08317142226355341,0.08622028961423511,0.08167805751300544,0.08366155131596939,0.08290400599289012,0.08691118203534866,0.08459317202486659,-0.06848230284241472
0.05800008773803711,car (1).jpg,0.07417216291095768,0.08637480722365465,0.08211514587582897,-0.06679899296748554,0.08496436744503587,0.08452162409086515,0.08513544769709679,0.08628457323128857,0.08318545915907134,0.08623611464930947,0.081755796880221,0.08367623641207653,0.08292063569076487,0.08689739100901973,0.08461024875763044,-0.06905095357310219
0.05800008773803711,car (1).jpg,0.07411907751787633,0.08636805699682915,0.08211156959671612,-0.06686805985785244,0.08499224007037164,0.08451862895710814,0.0851350900691855,0.08628765777202341,0.08317591496418893,0.08621823325374522,0.08164070774802062,0.08366105957759137,0.08291059975750444,0.08692477189597748,0.08459390963243361,-0.06836790661429246
0.05800008773803711,car (1).jpg,0.07415537675087175,0.08636602298808371,0.08210419352104587,-0.0665604104471696,0.08497827023008707,0.08451176697156036,0.0851260376126811,0.08627614662362892,0.0831795806502796,0.08623385712311948,0.0817599990081786,0.08367402358937545,0.08291350548428363,0.08689721219506409,0.08460564429827265,-0.0688627071812996
0.05800008773803711,car (1).jpg,0.07417533685867034,0.08638021634581283,0.08212368424221089,-0.06703169697900975,0.08497482806144095,0.08452935779444669,0.08514543892686831,0.08629420683314881,0.08318722494688331,0.08622961029167298,0.08171800008034708,0.08367243661551912,0.08292472606000019,0.08691853575927445,0.08460618074013958,-0.06869088932167164
0.05800008773803711,car (1).jpg,0.07412026216033246,0.08636204437757067,0.08210303123033419,-0.06659002650857287,0.08499617397739577,0.0845106493843376,0.08512726695862614,0.08627844885330782,0.08317542322581091,0.08622471525963726,0.08170425375750706,0.08366637929277174,0.08290923630109266,0.08691330545107191,0.08459686006270171,-0.06849327754894227
0.05800008773803711,car (1).jpg,0.07418771972509858,0.08638030575279065,0.0821209796811318,-0.06681135348216932,0.08496964245672732,0.08452716732349007,0.08514177324077764,0.0862897588360022,0.0831909800399518,0.08624257430345705,0.08178653052884705,0.08368249490052401,0.08292740826933483,0.0869008108259214,0.084615724935022,-0.06907198656463463
0.05800008773803711,car (1).jpg,0.07412162561674424,0.08637216971780892,0.08211590583514045,-0.06688484601793837,0.08499644219832923,0.08452341223042158,0.08514049919134369,0.08629299983894823,0.08318074294099127,0.0862240000038147,0.08166844626288966,0.08366590990613818,0.08291667943199628,0.08692859404427934,0.08459855879528032,-0.06837302516377272
0.05900001525878906,car (1).jpg,0.07414853711706842,0.08637176738640873,0.08211072023042681,-0.06656307030475977,0.08498656272727999,0.08451878541931933,0.08513348074358472,0.08628423795512175,0.08318700142943876,0.08624179199240112,0.08177779099676502,0.08368093027841214,0.08292041217332032,0.08690409653235633,0.08461199219369796,-0.06887862162335177
0.05900001525878906,car (1).jpg,0.0741667537887995,0.08638685481391606,0.08213144029753688,-0.06705118770017478,0.0849828523377004,0.08453706914628377,0.0851521444502049,0.08630225346115272,0.0831960315341987,0.08623881921038856,0.08173004767060849,0.08368032678131185,0.08293250446707064,0.08692664944251173,0.08461378033325438,-0.06871867254002959
0.05900001525878906,car (1).jpg,0.07411608238411932,0.08637111918581952,0.08211324597755026,-0.06663388063119419,0.08500538289611136,0.08451967948909754,0.0851357382697747,0.08628747895806776,0.0831871802433944,0.0862362487597762,0.08172027995828152,0.08367688461266573,0.08291947340005319,0.08692521893086659,0.08460656071979532,-0.06852009964228864
0.05900001525878906,car (1).jpg,0.07419002195477747,0.08639130281106266,0.08213282610569311,-0.06688334845105987,0.08498131006733299,0.08453791851257307,0.08515133978740451,0.08630118057741887,0.08320356407208014,0.08625491246639638,0.08181058100588096,0.0836942072146186,0.0829382265136512,0.08691428892782795,0.08462629731014935,-0.06910039563183733
0.05900001525878906,car (1).jpg,0.0741410492826759,0.08638611720634903,0.08213097091090332,-0.06700943464153226,0.0850091603409243,0.08453664446313912,0.08515285970602747,0.08630594149898785,0.08319404222894218,0.08623667344292085,0.0816947319143691,0.08367867275222216,0.08292883878097997,0.08694153570431896,0.08461000288844144,-0.06842798810338832
0.05900001525878906,car (1).jpg,0.07417240878014669,0.08638245152025836,0.0821224325445214,-0.06669861128313676,0.0849948552244729,0.08452832961420174,0.0851424437931113,0.08629042938833587,0.08319647856908781,0.0862510009111167,0.08179708055222995,0.08369034036282783,0.08292930816761353,0.08691185258768232,0.08461959178681276,-0.06896268653424818
0.05900001525878906,car (1).jpg,0.07419574400135803,0.08639841066579945,0.08214210207964207,-0.0672039618735268,0.08499152481454907,0.08454833442548924,0.08516226979044315,0.08631349638861374,0.08320662626107052,0.08624992802738285,0.0817538969819423,0.08369179322621742,0.08294338976662037,0.08693498664319356,0.08462345863860353,-0.06879755184621236
0.05900001525878906,car (1).jpg,0.074154750902027,0.08638061867721303,0.08212285722766605,-0.06680239043264274,0.08501289308224834,0.08452969307061352,0.08514528246465712,0.08629954890007363,0.08319415398766446,0.08624335661451299,0.08175268998774171,0.08368464066799172,0.08292758708329047,0.08692830347160142,0.08461310978092072,-0.0685940392129468
0.05900001525878906,car (1).jpg,0.07424366614147021,0.08639979647395568,0.08213995631217436,-0.06704859489781796,0.08498772501799166,0.08454623336151044,0.08516032518867554,0.0863110153449792,0.08321246006637335,0.08626376375720068,0.08184471211966421,0.08370366200252319,0.0829481283364449,0.08691692643367367,0.08463526035967593,-0.0692228384879635
0.059999942779541016,car (1).jpg,0.07418041070466169,0.08639742718904342,0.08214091743718593,-0.06722305026329163,0.0850165140648501,0.08454706037605529,0.0851641473369774,0.08631760910959352,0.08320584395001458,0.08624876573667117,0.08173760256023438,0.08369125678435049,0.08294169103404177,0.0869431673816642,0.08462178225776938,-0.06850315701999152
0.059999942779541016,car (1).jpg,0.07420146604793859,0.08639881299719965,0.08213785524819556,-0.06697666698416078,0.08500784158800144,0.08454368526264254,0.0851586488078414,0.08630942837112288,0.08321221419718434,0.08626682594619106,0.08185383163140197,0.08370672419151357,0.08294638490037738,0.08691697113716258,0.08463588620852068,-0.06907958615774944
0.059999942779541016,car (1).jpg,0.07420877506837548,0.086414392163085,0.08215723421063831,-0.06757341385762856,0.08500399708795513,0.08456304187334084,0.08517872067436226,0.08632907555449909,0.0832229877380118,0.08626673653921324,0.08181719712223973,0.08370913817991474,0.08296120410695125,0.08693912171591779,0.08464044596438956,-0.06892084406862785
0.059999942779541016,car (1).jpg,0.07415012409092475,0.0864007352472228,0.08214277263197572,-0.06730537173812053,0.08503026038769011,0.08454931790224528,0.08516609193874501,0.08631912902821648,0.08321634926990858,0.08626628950432413,0.08181990168331882,0.08370804294443643,0.08295101171147963,0.08693950169557353,0.08463604267073187,-0.06870362981601116
0.059999942779541016,car (1).jpg,0.07422985276339683,0.08642170118352188,0.08216186102174056,-0.06766259731800524,0.08500793099497926,0.08456800396060991,0.08518316867150887,0.08633251772314521,0.08323342600267243,0.08628569081851134,0.08191462837632041,0.08372612550570077,0.08296996599077773,0.08692854934079043,0.08465705331051986,-0.0693732210246588
0.059999942779541016,car (1).jpg,0.07417129119292393,0.08641837077359804,0.08216271038802986,-0.0679588920425048,0.08503669769009324,0.08456885332689922,0.085187102578533,0.08633913383950398,0.08322812863923652,0.08627118453635985,0.08181078217158105,0.08371407791543936,0.08296424394419717,0.08695718192543768,0.08464406694699132,-0.06863686515532316
0.059999942779541016,car (1).jpg,0.07419549813216902,0.0864207400585103,0.08216081048975116,-0.06780256394178437,0.08503050625687912,0.08456715459432061,0.08518272163661976,0.08633285299931204,0.08323818692424141,0.08629264221103694,0.08191959046358949,0.08373323336043756,0.0829723799791789,0.08693813823916176,0.08466174717685547,-0.06923432728461353
0.059999942779541016,car (1).jpg,0.07421051850444299,0.0864408566285201,0.08218441393189596,-0.06841772865268334,0.08503155678886852,0.08459053451902086,0.08520607920957556,0.08635663525541248,0.08324989923833599,0.08629268691452585,0.08186659447748595,0.08373555794186091,0.08298715448226386,0.08696279221329596,0.08466648574668,-0.06907831210831548
0.06100010871887207,car (1).jpg,0.07415805896020639,0.08642491983472345,0.08216720308866537,-0.06814537264649542,0.08505513787926887,0.08457417304207958,0.08519063415415694,0.08634279952559465,0.08323943862193091,0.08628776953074568,0.08184471211966421,0.08372976884004699,0.08297354226989058,0.08696122759118409,0.08465712036575322,-0.06878619716002907
0.06100010871887207,car (1).jpg,0.07424203446412497,0.08644449996286631,0.08218461509759606,-0.06844674121698632,0.08503144503014624,0.08459194267892155,0.08520549806421972,0.08635654584843466,0.0832566494651615,0.08630755082458863,0.08192634069041499,0.08374794080828915,0.08299325650850016,0.08695293509399117,0.0846780863020523,-0.06941318594374489
0.06100010871887207,car (1).jpg,0.07418841262917669,0.08644016372444198,0.08218378808305121,-0.06868425085356841,0.08505761892290341,0.08459127212658789,0.08520793440436535,0.08636139617698146,0.08324882635460214,0.08629109994066952,0.08180827877620206,0.0837338145057934,0.08298550045317417,0.08697989129780427,0.08466266359837814,-0.06864088846932512
0.06100010871887207,car (1).jpg,0.07422513654531676,0.08643978374478624,0.08217866953357095,-0.06845621835663537,0.08504921466698821,0.08458648885327445,0.08520069243916183,0.08635256723792162,0.08325443664246042,0.08630864606006694,0.08191067211755182,0.08374879017457845,0.08298927789798712,0.08695740544288223,0.08467587347935122,-0.06918897559511371
0.06100010871887207,car (1).jpg,0.07423691591464471,0.08645755338162821,0.08220032837394814,-0.06902652311641254,0.08504762769313189,0.08460754419655135,0.08522237363128347,0.08637368963643188,0.08326632777051064,0.08630992010950089,0.08186641566353031,0.08375205352926893,0.083004588842939,0.08697973483559308,0.08468184139512079,-0.06903988945959681
0.06100010871887207,car (1).jpg,0.0741741075127253,0.08644228714016523,0.08218468215282942,-0.06877026036623243,0.08507190168761035,0.08459232265857729,0.08520864966018792,0.08636155263919265,0.08325870582565138,0.08630683556876606,0.08185850314599313,0.08374852195364499,0.08299312239803343,0.08697861724837032,0.08467522527876202,-0.06879527196827792
0.5360000133514404,car (1).jpg,0.07424885174618384,0.0864634095386755,0.08220408346701663,-0.06908423532059614,0.08505118162050028,0.08461143340008657,0.08522534641329603,0.08637581305215514,0.08327745893924939,0.08632833794693207,0.08194625609472467,0.08376875028237704,0.0830136412994434,0.08697088354478878,0.08469804640985089,-0.06944796525811735
0.5369999408721924,car (1).jpg,0.07418881496057689,0.08646211313749709,0.0822071009525181,-0.06937380217001464,0.08507889778362486,0.0846140709059323,0.08523055436975412,0.08638457493598162,0.08327222863104684,0.0863141669409474,0.08184115819229582,0.08375717207874919,0.08300876861915214,0.08699935966722484,0.08468530591551136,-0.06871426924637189
0.5369999408721924,car (1).jpg,0.07423074683317504,0.08646182256481917,0.08220234003094912,-0.06921519419135978,0.08507185698412144,0.08460924292912995,0.08522382649467307,0.08637643890099989,0.08327893415438344,0.08633204833651165,0.08194643490868031,0.083773019465568,0.08301386481688795,0.08697910898674834,0.08469927575579593,-0.06928151181715868
0.5369999408721924,car (1).jpg,0.0742570771881434,0.08648024040225034,0.08222422238877086,-0.06983315287031566,0.08506908536780898,0.0846302759206624,0.08524577590772818,0.08639718131985441,0.08329013237835554,0.08633269653710085,0.08191214733268587,0.08377561226792482,0.08302868402346182,0.08699911379803583,0.08470493074714312,-0.06916009714127745
0.5369999408721924,car (1).jpg,0.07420613756252975,0.08646707522476617,0.08221040901069748,-0.06963596578073093,0.08509476752218813,0.08461688722573367,0.08523395183491132,0.08638651953774923,0.08328344920676341,0.08633104250801116,0.08189042143707531,0.08377268418940118,0.08301846927624575,0.08700052195793652,0.08469898518311801,-0.06891299860632404
0.5369999408721924,car (1).jpg,0.07429024717691507,0.0864857612831308,0.0822271057638056,-0.06995284646187383,0.08507261694343292,0.08463380749628634,0.08524827930310717,0.08639986352918905,0.08329838017205955,0.08634925917974223,0.08196909957755799,0.08378873274192009,0.08303483075318703,0.08699093305956519,0.08471847590428304,-0.06953444415741493
0.5380001068115234,car (1).jpg,0.0742491199671173,0.08648243087320696,0.08222741868822797,-0.07024525198283815,0.08509789676641187,0.08463396395849752,0.08525118502988636,0.0864046915059914,0.08329368630572394,0.0863358704848135,0.08185271404417921,0.0837765733929364,0.08302937692753994,0.08701820218780067,0.08470578011343242,-0.0688099347126406
0.5380001068115234,car (1).jpg,0.07428510627569035,0.08648419666101893,0.08222489294110452,-0.07008230776575897,0.08509514750184387,0.08463063354857368,0.08524678173622867,0.0863971366163655,0.08330323050060635,0.0863566799589014,0.08194699370229169,0.08379425362280055,0.08303630596832108,0.08700007492304741,0.08472182866595133,-0.06916382988260149
0.5380001068115234,car (1).jpg,0.07429744443862968,0.08650350856822832,0.0822482058105714,-0.07069539376442358,0.08509519220533278,0.08465309705175127,0.08526982638476209,0.08641993539570991,0.0833124617710664,0.08635594235133437,0.08191402487922012,0.08379508063734539,0.08304855472428259,0.0870176880976782,0.08472574022123101,-0.06889198796653605
0.5380001068115234,car (1).jpg,0.07423832407454539,0.08648783999536515,0.08223148670571884,-0.07055088973652002,0.08511846037131075,0.08463619913294305,0.08525415781189892,0.08640661375601455,0.08330653855878574,0.08635473535713378,0.08190671585878323,0.08379313603557778,0.08303892112242235,0.08702050441747956,0.08472100165140649,-0.06895081775794241
0.5390000343322754,car (1).jpg,0.07431342593591522,0.08651173401018787,0.0822532573048183,-0.07093833487490832,0.08510171891471373,0.08465790267680916,0.08527320149817484,0.08642355637831167,0.08332654337007324,0.08637809293008958,0.08198226475504217,0.08381497368991062,0.0830610493494331,0.08701750928372255,0.08474476155576248,-0.06919248481899319
0.5390000343322754,car (1).jpg,0.07424286147866982,0.08651077288517629,0.0822564089007865,-0.07133894519078078,0.08512724460688169,0.08466125543847745,0.08527883413777758,0.0864320500412047,0.08332108954442614,0.08636340783398244,0.08188541464631732,0.08380285904441584,0.08305617666914185,0.08704663360674782,0.08473233398584533,-0.06879395321535506
0.5390000343322754,car (1).jpg,0.07427509269417437,0.08651090699564302,0.08225211736585109,-0.07125262275369439,0.0851224389818238,0.08465714271749768,0.08527277681503019,0.08642422693064533,0.0833276162538071,0.08638102100861322,0.0819747992723941,0.08381854996902346,0.08306082583198855,0.08702924394956159,0.08474663910229673,-0.06924541374986336
0.5390000343322754,car (1).jpg,0.07429845026713017,0.08652939188830756,0.08227420088937293,-0.07192089520941916,0.08511942149632233,0.08467813100554121,0.08529403332400719,0.08644548343962234,0.0833402673411688,0.08638350205224776,0.08195032411221553,0.08382328853884799,0.08307752258509667,0.08705032164458294,0.08475347873610005,-0.06896943676107369
0.5390000343322754,car (1).jpg,0.07424603542638247,0.08651843953352446,0.08226262268574508,-0.07182216755416007,0.0851460424239686,0.08466630693272435,0.08528435501865804,0.08643598394822884,0.08333528290215526,0.08638271974119183,0.08194024347546619,0.08382246152430314,0.08306963241930394,0.08705318266787322,0.08474996951222057,-0.06900084096203339
0.5399999618530273,car (1).jpg,0.07433993510483922,0.08653994191169047,0.08228182283423219,-0.07222700234973459,0.08512695403420377,0.08468541767423364,0.08530172232409981,0.0864518536867921,0.08335358898086416,0.08640478091296921,0.08202571654626328,0.08384347216409113,0.08309028543118065,0.08704482311544694,0.08477229890493142,-0.06926097056400425
0.5399999618530273,car (1).jpg,0.07429576805779553,0.08654097009193541,0.0822877683982573,-0.07267338903825152,0.08515484901128399,0.08469122912779202,0.08531001482129273,0.08646349894565332,0.08335148791688536,0.08639405207563067,0.08194109284175549,0.08383529142562049,0.08308889962302442,0.08707215929891578,0.08476371583506058,-0.06878811941005222
0.5399999618530273,car (1).jpg,0.07434360079092989,0.08654253471404728,0.08228479561624474,-0.07262316466846044,0.08515201033973817,0.08468874808415748,0.08530514214100147,0.0864577098438394,0.0833598698210561,0.08641372161075134,0.08203456783706758,0.08385290460025127,0.08309480048356062,0.08705347324055114,0.08477951851839048,-0.06926667025884035
0.5399999618530273,car (1).jpg,0.07438454918677201,0.08656430531314675,0.08231058952934617,-0.07339510451496893,0.08515131743566005,0.08471367027922515,0.08532995257734687,0.08648182737610667,0.08337296794330691,0.08641682850323062,0.08201078558096714,0.0838584925363651,0.08311210073376903,0.08707305336869399,0.08478667107661618,-0.06902071166285416
0.5409998893737793,car (1).jpg,0.07433546475594816,0.0865527271095189,0.08229869840129594,-0.07333846519451918,0.08517874302610672,0.08470200266861948,0.08532031897548663,0.0864735125271693,0.08336983869908317,0.08641736494509755,0.0819998555779285,0.08385929719916549,0.08310579754183263,0.08707882011876346,0.08478461471612629,-0.06901000517726007
0.5409998893737793,car (1).jpg,0.07441883676276645,0.08657380480454026,0.08231756327361622,-0.07372387632416204,0.08516030283693109,0.08472091224442867,0.08533600990009425,0.08648763882966505,0.08338541786496852,0.08643732505289616,0.0820675143083947,0.08387742446391874,0.08312403656530816,0.08707046056633717,0.08480419484426914,-0.06928392580555985
0.5409998893737793,car (1).jpg,0.07434842876773223,0.08657239664463957,0.08232105014575125,-0.07416550209111,0.08518591793607687,0.08472457793051934,0.08534132961527462,0.08649631130651371,0.0833819756963224,0.08642456220681216,0.08197041833048085,0.08386698619925811,0.08312135435597352,0.08709929431668452,0.08479373422786406,-0.06882694439017109
0.5409998893737793,car (1).jpg,0.0743729039279108,0.08657244134812848,0.08231593159627099,-0.07404799897050846,0.08518417450000935,0.08471990641592818,0.08533565227218297,0.08648895758258791,0.08338901649582582,0.08644210832620959,0.08205479616579964,0.08388220773723218,0.08312604822230914,0.08708295519148769,0.08480768171640417,-0.06928148946541422
0.5420000553131104,car (1).jpg,0.07438689611993982,0.08659184266231569,0.08234185961983914,-0.0743668019016745,0.08518229695347511,0.08474122998013854,0.08535840634803847,0.08650983411190917,0.08340227108028782,0.0864457516605558,0.08201968157526035,0.08388732628671244,0.08314325906553972,0.08710544104640973,0.08481550482696353,-0.06901597309302963
0.5420000553131104,car (1).jpg,0.07430866501434624,0.08657865513308706,0.08232896266328843,-0.07438848309379614,0.08521010252357751,0.08472855654103238,0.0853475881037221,0.08650096046936041,0.08339350919646134,0.08644056605584217,0.08199520641508179,0.08388160424013189,0.08313083149562257,0.08711078311333455,0.08480672059139259,-0.06898197608971311
0.5420000553131104,car (1).jpg,0.07436776302668607,0.08659389902280558,0.08234192667507251,-0.0744226142075794,0.08518824251750022,0.08474087235222726,0.08535760168523808,0.08650902944910878,0.08340783666465719,0.0864587603758288,0.08206422860195978,0.08389814453102881,0.08314685769639703,0.08710546339815418,0.08482576427766851,-0.06961515630664304
0.5420000553131104,car (1).jpg,0.07428901783097003,0.08659372020884994,0.082345681768141,-0.07443767928334227,0.08521303060210116,0.08474393454121763,0.08536348019402983,0.08651678550443477,0.08340222637679891,0.08644347178262136,0.08193999760627718,0.08388520287098919,0.08314176149866122,0.08713525827351311,0.08481248734146206,-0.06885278300676144
0.5429999828338623,car (1).jpg,0.07429505280197296,0.0865891381012366,0.08233653990465878,-0.07443032555941648,0.08520764383168743,0.08473456916029086,0.08535246078401336,0.08650435793451762,0.08340517680706701,0.0864568604775501,0.08199788862441643,0.08389662461240585,0.08314180620215013,0.0871181591890048,0.08482178566715547,-0.06927912018050196
0.5429999828338623,car (1).jpg,0.07430412761022182,0.08660545487468897,0.08235589651535707,-0.07444673173984667,0.08520147475021776,0.08475327757039995,0.08537110213888909,0.08652293223415998,0.08341344695251547,0.08645589935253851,0.08194140576617787,0.0838976527926508,0.08315421142032282,0.0871356606049133,0.08482520548405713,-0.06915873368486568
0.5429999828338623,car (1).jpg,0.07423662534196679,0.0865872382029579,0.08233855156165976,-0.07443560057110793,0.0852214572097608,0.08473613378240273,0.08535489712415899,0.08650916355957551,0.08340421568205543,0.0864497079193244,0.08189109198940897,0.08389152841467004,0.08314180620215013,0.08713878984913705,0.08481548247521907,-0.0688113875760302
0.5429999828338623,car (1).jpg,0.07432621113374366,0.08660520900549996,0.08235314725078907,-0.07444434010318995,0.08519937368623896,0.08475072947153205,0.08536732469407614,0.08651890892015802,0.08341720204558396,0.08646678465208825,0.08195986830709795,0.0839071522840443,0.08315725125756875,0.08712750221818712,0.08483309564984985,-0.06941325299897826
0.5439999103546143,car (1).jpg,0.07427299163019557,0.08660118569149801,0.08235332606474471,-0.07444740229218033,0.08521946790450428,0.08475131061688788,0.08537058804876661,0.0865251227051166,0.083410429467014,0.08645042317514696,0.08183469853814823,0.08389309303678191,0.08315130569354363,0.08715249146848815,0.08481919286479865,-0.06874779686305485
0.5439999103546143,car (1).jpg,0.07431157074112543,0.08659564245887309,0.082342932503573,-0.07443783574555346,0.08521372350617927,0.08474134173886082,0.08535907690037213,0.08651256102473272,0.08340946834200243,0.08646001207351829,0.0819067829140166,0.08390044676070771,0.08314755060047514,0.08712969268914374,0.08482419965555664,-0.06916856845242601
0.5439999103546143,car (1).jpg,0.0743425949624294,0.08660860647065717,0.08235779641363578,-0.07444881045208102,0.08520400049734121,0.08475618329717914,0.08537335966507907,0.08652666497548402,0.08341702323162832,0.08645864861710652,0.08185257993371248,0.08390037970547434,0.08315906174886963,0.0871447130614177,0.08482728419629147,-0.06908597875666365
0.5439999103546143,car (1).jpg,0.07428414515067877,0.086590434502415,0.08233982561109371,-0.07443600290250812,0.08522554757899613,0.08473870423301509,0.08535762403698254,0.08651238221077708,0.08340430508903325,0.08644892560826846,0.0817975052353746,0.0838905002344251,0.08314325906553972,0.0871468141253965,0.08481438723974076,-0.06871552094406139
0.5439999103546143,car (1).jpg,0.07437645785527919,0.0866028397205877,0.08234800634956435,-0.07443904273975405,0.08520013364555044,0.08474713084067474,0.08536361430449656,0.08651466208871152,0.08341474335369388,0.08646352129739777,0.08185825727680413,0.08390277134213106,0.08315528430405668,0.08713454301769054,0.08482860294921434,-0.06922377726123062
0.5450000762939453,car (1).jpg,0.07430940262191327,0.0865994422554305,0.08234840868096455,-0.07443893098103177,0.08522033962253804,0.08474822607615305,0.08536690001093149,0.08652192640565949,0.08340797077512392,0.08644731628266768,0.08173257341773194,0.08388875679835758,0.08314969636794285,0.08716040398602533,0.08481519190254115,-0.06864370478912649
0.5450000762939453,car (1).jpg,0.07433356485766945,0.08659307200826073,0.08233584700058066,-0.07436121396556067,0.08521448346549075,0.0847383466051038,0.08535563473172601,0.08651059407122065,0.08340741198151254,0.08645744162290593,0.0818032049302107,0.08389678107461704,0.08314661182720802,0.08713910277355942,0.08482055632121042,-0.06896610635114984
0.5450000762939453,car (1).jpg,0.07436206333184997,0.08660503019154432,0.08235088972459909,-0.07441693686448775,0.08520192178510687,0.08475213763143273,0.0853692469440993,0.08652304399288226,0.08341107766760321,0.08645263599784804,0.08175382992670893,0.08389271305712617,0.08315454669648965,0.0871470152910966,0.08481999752759904,-0.0689642288046156
0.5450000762939453,car (1).jpg,0.07429581276128444,0.08658390779303406,0.0823273756894321,-0.07423888286815677,0.08521993729113785,0.08473197635793404,0.0853502926648012,0.08650628018454078,0.0833977783796523,0.08644181775353167,0.08170964052792079,0.08388216303374327,0.08313796170210382,0.08714759643645244,0.08480660883267031,-0.06865488066135414
0.5450000762939453,car (1).jpg,0.07438320808210469,0.08659698356354041,0.08233499763429136,-0.0741663067539104,0.08519497039258127,0.08474129703537191,0.08535681937418214,0.08651151049274332,0.0834095801007247,0.08645764278860603,0.08178632936314695,0.08389642344670575,0.08315159626622155,0.08713637586073587,0.08482285855088932,-0.06915473272260818
0.5460000038146973,car (1).jpg,0.07431697986328362,0.08659271438034945,0.08233709869827016,-0.07425186923168531,0.0852132094160568,0.08474286165748378,0.08536155794400667,0.08651754546374625,0.08339905242908625,0.08643743681161843,0.08166840155940075,0.08387856440288596,0.08314202971959468,0.08715582187841199,0.08480578181812547,-0.0686098418962767
0.5460000038146973,car (1).jpg,0.07434657357294244,0.08658160556335516,0.08231874791607235,-0.07379638538317507,0.08520297231709627,0.08472786363695427,0.08534432474903163,0.08649946290248191,0.08339536439125113,0.08644411998321057,0.0817393906997908,0.08388325826922158,0.08313525714102472,0.08713031853798849,0.08480810639954882,-0.06889062451012427
0.5460000038146973,car (1).jpg,0.07436760656447489,0.08659461427862815,0.08233374593660187,-0.07402895528423253,0.08519117059602387,0.08474304047143942,0.08536008272887262,0.08651385742591113,0.08340370159193296,0.08644409763146611,0.08170789709185328,0.08388428644946652,0.08314748354524178,0.08713954980844853,0.08481259910018434,-0.06891427265575799
0.5460000038146973,car (1).jpg,0.07428718498792469,0.0865777834150533,0.0823168256660492,-0.07365000380873725,0.08521274002942324,0.0847277965817209,0.08534642581301043,0.08650178748390526,0.08339265983017204,0.08643524634066181,0.08166140546338624,0.08387552456564004,0.08313237376598999,0.08713843222122576,0.08480115500702322,-0.06858961356754464
0.5460000038146973,car (1).jpg,0.07436058811671592,0.08659088153730411,0.08232552049464231,-0.07357814295031344,0.0851892036425118,0.08473758664579233,0.08535342190902494,0.08650612372232959,0.08340318750181049,0.08645042317514696,0.0817391448306018,0.08388886855707986,0.08314430959752912,0.08712294246231823,0.08481579539964144,-0.06907147247451216
0.5469999313354492,car (1).jpg,0.07428023359539909,0.0865855394703793,0.0823252746254533,-0.07367749645441728,0.08520442518048586,0.08473731842485886,0.08535617117359294,0.08650936472527561,0.08339422445228391,0.08643169241329342,0.08162193228267817,0.0838725964871164,0.08313619591429185,0.08714093561660476,0.08480052915817847,-0.06858909947742217
0.5469999313354492,car (1).jpg,0.07428830257514746,0.08657887865053161,0.08231313762821407,-0.07314995058178313,0.08519948544496124,0.08472647782879804,0.0853439894728648,0.08649499255359085,0.08339326332727233,0.08644141542213148,0.08168775817009905,0.08388033019069793,0.08313190437935643,0.08712003673553904,0.08480544654195864,-0.06883568392225312
0.5469999313354492,car (1).jpg,0.07430200419449856,0.08658884752855868,0.08232558754987568,-0.07340116183771632,0.08518448742443173,0.0847395983027933,0.08535603706312621,0.08650869417294195,0.08339806895233022,0.08643877791628575,0.08166145016687515,0.08387845264416369,0.0831408227253941,0.08712792690133177,0.08480685470185932,-0.06889867113812818
0.5469999313354492,car (1).jpg,0.07421389361785574,0.08657141316788354,0.08230864492757856,-0.07296861087901722,0.08520572158166427,0.08472305801189638,0.08534139667050798,0.08649423259427937,0.0833883235917477,0.08643073128828184,0.08162997891068208,0.08387096480977116,0.08312747873395428,0.08713025148275512,0.08479668465813216,-0.06857117337836902
0.5499999523162842,car (1).jpg,0.07429885259853036,0.08658587474654612,0.08231865850909453,-0.07287084434876971,0.08518397333430926,0.08473331746260136,0.08534982327816763,0.08650122869029388,0.08339773367616339,0.08644517051519997,0.08172571143218416,0.08388368295236623,0.08313834168175956,0.08711735452620441,0.08481034157399435,-0.06903935301772988
0.5499999523162842,car (1).jpg,0.07421974977490303,0.0865792362784429,0.08231756327361622,-0.07296749329179446,0.08519756319493808,0.08473181989572286,0.08535022560956783,0.08650368738218396,0.08338834594349216,0.08642626093939078,0.08162709553564734,0.08386687444053584,0.08312975861188872,0.08713666643341379,0.084794762408109,-0.06858585847447615
0.5499999523162842,car (1).jpg,0.07422985276339683,0.08657239664463957,0.08230542627637699,-0.07245483368096753,0.08519311519779148,0.08472068872698411,0.08533661339719455,0.0864897622453883,0.08338836829523662,0.0864360510034622,0.08170099040281659,0.08387471990283965,0.08312620468452032,0.08711925442448311,0.08479999271631154,-0.06880110577358076
0.5499999523162842,car (1).jpg,0.07424178859493596,0.08658464540060108,0.08231993255852849,-0.07270146282928738,0.08518053116566314,0.08473412212540175,0.08535006914735664,0.08650194394611645,0.0833933750859946,0.08643334644238311,0.08169555892891395,0.0838728423563054,0.0831351677340469,0.08712620581700871,0.08480144557970114,-0.06888443307691015
0.5520000457763672,car (1).jpg,0.07414773245426803,0.08656504292071378,0.08230153707284177,-0.07230257359773798,0.08519977601763916,0.08471610661937078,0.08533381942913763,0.08648757177443168,0.08338179688236676,0.0864232434538893,0.08166151722210852,0.08386311934746735,0.08311974503037274,0.08712882097110998,0.08478942034118418,-0.06855233085779319
0.5529999732971191,car (1).jpg,0.07422844460349615,0.0865781857464535,0.08230998603224587,-0.07220963504429281,0.08517729016271712,0.08472453322703043,0.08534025673154076,0.08649117040528899,0.08338921766152592,0.08643524634066181,0.08175436636857586,0.08387322233596115,0.0831286186729215,0.08711315239824681,0.08480093148957867,-0.06900372433706813
0.5539999008178711,car (1).jpg,0.07414967705603565,0.08657054144984978,0.08230813083745608,-0.07230773685070715,0.08518978478786764,0.08472176161071797,0.08534077082166323,0.08649251150995631,0.08338121573701092,0.08641767786951993,0.08166261245758683,0.08385782198403144,0.08312206961179609,0.08713228549150055,0.0847871628149942,-0.0685727827039698
0.5539999008178711,car (1).jpg,0.07416811724521127,0.08656314302243508,0.08229545739834992,-0.07182062528379266,0.08518562736339895,0.08470962461347874,0.0853277844581347,0.08647804993129372,0.0833790252660543,0.08642550098007928,0.08173353454274351,0.08386365578933427,0.08311630286172662,0.08711275006684661,0.08479026970747348,-0.06877088621507718
0.5539999008178711,car (1).jpg,0.07419366528912369,0.08657465417082956,0.08230911431421212,-0.07203312331832926,0.08517219396498131,0.08472283449445182,0.08534041319375195,0.08648956107968821,0.08338494847833496,0.08642411517192305,0.08171764245243579,0.08386325345793408,0.0831259141118424,0.08711865092738282,0.08479270604761911,-0.0688781075332293
0.5539999008178711,car (1).jpg,0.07411306489861785,0.08655654925782076,0.08229243991284846,-0.07165855278474721,0.08519264581115792,0.08470705416286638,0.08532595161508937,0.08647737937896006,0.08337339262645156,0.08641428040436272,0.08167398949551458,0.08385355280084048,0.083111363126202,0.08712108726752844,0.08478077021607998,-0.06855161560197062
0.5550000667572021,car (1).jpg,0.07420383533285085,0.08656911093820464,0.08230026302340782,-0.07154006618738963,0.08517078580508063,0.08471574899145949,0.08533200893783675,0.0864825649836737,0.08338090281258854,0.08642702089870226,0.08175948491805612,0.08386441574864575,0.08312054969317313,0.08710633511618794,0.08479243782668565,-0.06898789930199377
1.0169999599456787,car (1).jpg,0.07413416494538366,0.08656126547590083,0.08229809490419565,-0.07162822146752136,0.08518106760753007,0.08471322324433604,0.08533189717911448,0.08648424136450784,0.08337169389387296,0.08640820072987088,0.08166245599537564,0.08384800956821556,0.08311292774831387,0.08712278600010705,0.08477712688173376,-0.06858179045698529
1.0179998874664307,car (1).jpg,0.07416118820443013,0.08655395645546395,0.08228584614823414,-0.07114077462444003,0.08517818423249533,0.08470211442734175,0.08531882140860812,0.08647170203586842,0.08337048689967237,0.08641656028229716,0.08173078527817551,0.08385455862934096,0.08310870326861182,0.08710481519756498,0.08478108314050235,-0.06876800284004245
1.0179998874664307,car (1).jpg,0.07419040193443321,0.08656502056896932,0.08229898897397386,-0.07133472071107873,0.0851637003020883,0.08471469845947009,0.08533162895818101,0.0864836155156631,0.0833758736700861,0.08641457097704064,0.0817244373827502,0.0838532398764181,0.08311844862919433,0.08710966552611178,0.08478358653588135,-0.06887909100998534
1.0190000534057617,car (1).jpg,0.0741092874538049,0.08654707211817171,0.08228253809005476,-0.07095965843911868,0.08518531443897658,0.08469858285171782,0.08531730148998516,0.08647031622771219,0.08336409430075815,0.08640404330540219,0.08168044914966216,0.08384304748094648,0.0831029588702868,0.0871116101278794,0.0847709578002641,-0.06854128909603227
1.0190000534057617,car (1).jpg,0.07420142134444968,0.08655746567934343,0.08228763428779057,-0.07083138177768968,0.08516175570032068,0.0847045954709763,0.08532016251327544,0.08647127735272377,0.08337182800433969,0.08641716377939745,0.08176232358960195,0.0838540892427074,0.08311207838202457,0.08709636623816087,0.08478302774226996,-0.06898036676411233
1.0190000534057617,car (1).jpg,0.0741303427970818,0.08655288357173009,0.08228910950292462,-0.07093013178469322,0.08517559143013852,0.08470573540994351,0.08532514695228897,0.08647657471615967,0.08336541305368102,0.08640082465420063,0.08166782041404491,0.08383982882974492,0.08310738451568896,0.08711534286920343,0.08477064487584172,-0.06857206744814723
1.0260000228881836,car (1).jpg,0.07415294041072612,0.08654713917340508,0.0822783136103527,-0.07045086568008252,0.08517501028478268,0.08469531949702734,0.08531345698993885,0.08646430360845371,0.0833659718472924,0.0864114417328169,0.08174517980160473,0.08384876952752704,0.08310436703018749,0.08709996486901818,0.08477647868114456,-0.06875394359278006
1.0269999504089355,car (1).jpg,0.0741733028499249,0.08655945498459995,0.08229331163088222,-0.07065104790342425,0.08516220273520979,0.08470971402045656,0.08532686803661203,0.08647728997198224,0.08337111274851712,0.08640987711070502,0.08174059769399139,0.08384796486472665,0.08311362065239199,0.08710342938940875,0.08477887031780128,-0.06888322608270957
1.0290000438690186,car (1).jpg,0.07409437884025322,0.08654190886520254,0.08227677133998529,-0.07030546758240075,0.08518267693313085,0.08469337489525973,0.08531227234748272,0.08646497416078737,0.08336154620189025,0.08640142815130092,0.0817031361702843,0.08384032056812293,0.08310063428886345,0.08710823501446664,0.08476847675662956,-0.06855161560197062
1.0299999713897705,car (1).jpg,0.07418552925414196,0.08655554342932027,0.08228551087206731,-0.07019907327879349,0.08516086163054247,0.08470251675874195,0.08531817320801892,0.0864686621986225,0.08336968223687198,0.08641495095669638,0.08178961506958188,0.08385180936477296,0.08310993261455686,0.08709278995904803,0.08478077021607998,-0.06899639296488679
1.0299999713897705,car (1).jpg,0.07411565770097467,0.08654984373448417,0.08228562263078959,-0.07034167740841835,0.08517159046788102,0.08470271792444205,0.0853202295685088,0.08647378074810276,0.0833619708850349,0.08639769540997688,0.08169068624862269,0.08383674428901008,0.08310412116099848,0.08711178894183504,0.08476684507928432,-0.06857052517777981
1.0299999713897705,car (1).jpg,0.07414473732051102,0.08654213238264709,0.08227250215679432,-0.0698834442953401,0.08516830476144609,0.08469044681673608,0.0853058797485685,0.08645907330025117,0.08336013804198956,0.08640580909321416,0.08174906900513995,0.08384311453617985,0.08309906966675158,0.08709384049103742,0.08477001902699698,-0.06875722929921499
1.0309998989105225,car (1).jpg,0.07418539514367523,0.08655625868514284,0.08228819308140195,-0.0701129967108961,0.08515547486012874,0.0847060930378548,0.08532154832143167,0.08647400426554731,0.0833672235449819,0.08640616672112544,0.08174600681614957,0.0838439415507247,0.08311037964944597,0.08709828848818403,0.08477451172763249,-0.06890003459453996
1.0309998989105225,car (1).jpg,0.07410620291307007,0.08653665620525554,0.08227037874107107,-0.06978552130288139,0.08517440678768239,0.08468821164229055,0.08530630443171315,0.08646043675666294,0.08335479597506475,0.08639440970354195,0.08169725766149255,0.08383307860291941,0.0830951581114719,0.08710083658705194,0.08476127949491495,-0.0685692287766014
1.0309998989105225,car (1).jpg,0.07420472940262907,0.0865495308100618,0.0822781124446526,-0.06967114742650359,0.08515294911300529,0.08469610180808328,0.08531149003642678,0.08646258252413065,0.08336384843156915,0.08640887128220454,0.081780048522955,0.08384548382109211,0.08310530580345461,0.08708494449674421,0.08477507052124388,-0.06903186518333736
1.0309998989105225,car (1).jpg,0.07413662363727375,0.08654526162687083,0.08227954295629775,-0.0698120751752943,0.08516591312478937,0.08469733115402832,0.08531654153067368,0.08646881866083368,0.08335738877742156,0.08639277802619671,0.08169173678061209,0.0838313351668519,0.08310123778596375,0.08710479284582053,0.08476277706179346,-0.06858992649196702
1.0309998989105225,car (1).jpg,0.0741615011288525,0.08653759497852266,0.08226678011021377,-0.06933689943991893,0.08516577901432264,0.08468602117133393,0.08530373398110079,0.0864567040153389,0.083356919390788,0.0864023892763125,0.0817604460430677,0.0838387335942666,0.08309699095451724,0.08708751494735657,0.08476729211417343,-0.06877841875295862
1.0309998989105225,car (1).jpg,0.07420517643751817,0.0865522800746298,0.0822829180697105,-0.06957177157065529,0.08515341849963885,0.08470220383431958,0.08531897787081931,0.08647089737306803,0.08336378137633578,0.08640297042166833,0.08176402232218055,0.08383969471927818,0.08310805506802262,0.08709156061310298,0.08477158364910885,-0.06892439799599624
1.0320000648498535,car (1).jpg,0.07412509013713481,0.08653424221685437,0.08226648953753585,-0.06925475677904568,0.08517512204350496,0.08468622233703403,0.08530469510611237,0.08645918505897345,0.08335392425703099,0.08639356033725265,0.08171192040585523,0.0838304858005626,0.08309437580041597,0.08709864611609532,0.084760005445481,-0.06856927348009031
1.0320000648498535,car (1).jpg,0.07421829691151344,0.08654830146411675,0.08227480438647322,-0.06914860834462742,0.0851546925490728,0.08469552066272744,0.0853111324085155,0.08646358835263114,0.08336411665250261,0.08640947477930483,0.08180058977610943,0.08384387449549133,0.0831056634313659,0.0870853021246555,0.0847745564311214,-0.06904780197713399
1.0320000648498535,car (1).jpg,0.0741524486723481,0.08654430050185925,0.0822762125463739,-0.06930994323610583,0.08516580136606709,0.08469708528483931,0.08531522277775082,0.08646908688176715,0.08335609237624315,0.08639125810757375,0.08170579602787448,0.08382780359122796,0.08309902496326267,0.08710463638360934,0.08475993839024763,-0.06860072238453893
1.0320000648498535,car (1).jpg,0.07416179170153042,0.08653459984476565,0.08226210859562261,-0.06883291230594066,0.0851637450055772,0.08468336131374375,0.08530000123977675,0.08645355241937071,0.08335443834715346,0.08639937179081103,0.08177070549377269,0.0838338832657198,0.08309354878587112,0.0870872020229342,0.08476344761412712,-0.06880609021259429
1.0320000648498535,car (1).jpg,0.07418870320185461,0.08654948610657288,0.08227869359000844,-0.06907913912286033,0.08515051277285966,0.08469961103196276,0.0853164297719514,0.08646817046024448,0.08336212734724609,0.08640089170943399,0.0817684479675827,0.08383576081225405,0.08310561872787699,0.08709214175845882,0.08476892379151867,-0.06894207822586039
1.0320000648498535,car (1).jpg,0.07410892982589362,0.0865295707022632,0.0822602086973439,-0.06877265200288915,0.08516937764517994,0.08468152847069842,0.08530002359152121,0.08645433473042664,0.08334717403020549,0.08638627366856022,0.08171247919946661,0.08382158980626939,0.08308720089044581,0.08709473456081564,0.08475249525934402,-0.06856880409345675
1.0320000648498535,car (1).jpg,0.07420193543457215,0.0865409253884465,0.08226613190962456,-0.06867501958310837,0.08514537187163494,0.08468767520042363,0.08530330929795614,0.08645493822752694,0.08335788051579958,0.08640270220073487,0.08180461309011139,0.08383627490237652,0.08309889085279594,0.08707975889203058,0.08476798501825154,-0.06904865134342329
1.0329999923706055,car (1).jpg,0.07413787533496324,0.08653956193203473,0.08227093753468245,-0.06886726693716848,0.08515972169157525,0.08469192203187013,0.08530979130384818,0.08646262722761956,0.08335072795757388,0.08638551370924874,0.08171254625469998,0.08382134393708038,0.08309399582076023,0.08709976370331808,0.08475452926808945,-0.06860020829441646
1.0329999923706055,car (1).jpg,0.07415130873338088,0.08652818489410698,0.08225524661007483,-0.06840051780945275,0.08515771003457427,0.08467719223227409,0.08529394391702937,0.08644753980011223,0.08334777752730578,0.0863922862878187,0.08178413889219033,0.08382623896911609,0.08308749146312373,0.08708072001704216,0.08475692090474617,-0.06878414079953918
1.0329999923706055,car (1).jpg,0.0741901113617553,0.08654097009193541,0.0822696634852485,-0.06864725871649488,0.08514230968264457,0.0846915420522144,0.08530820432999185,0.08646117436422997,0.08335535476867613,0.08639391796516394,0.08178563645906883,0.08382840708832826,0.08309942729466287,0.08708420688917719,0.08476226297167098,-0.0689383231327919
1.0329999923706055,car (1).jpg,0.0741121931805841,0.08652543562953897,0.08225567129321948,-0.06834450433784775,0.08516600253176719,0.0846782874677524,0.08529620144321935,0.08645151841062527,0.0833459670360049,0.08638450788074825,0.0817315899409759,0.08381989107369078,0.08308677620730116,0.08709232057241446,0.08475108709944333,-0.06855955047125226
1.0329999923706055,car (1).jpg,0.07420613756252975,0.0865396289872681,0.08226490256367952,-0.0682392052697188,0.0851453942233794,0.08468736227600125,0.08530245993166684,0.08645511704148258,0.083356919390788,0.08640151755827874,0.08182622722699967,0.08383477733549802,0.08309893555628485,0.08707658494431793,0.08476677802405096,-0.06905026066902407
1.0329999923706055,car (1).jpg,0.07414446909957756,0.08653813142038959,0.08226899293291484,-0.06845094334494392,0.08515779944155209,0.08469098325860301,0.08530840549569195,0.08646244841366392,0.08335106323374071,0.08638564781971547,0.08173666378696726,0.08382152275103602,0.08309509105623854,0.08709694738351671,0.08475466337855618,-0.06860825492242037
1.0329999923706055,car (1).jpg,0.07416062941081875,0.08652820724585143,0.08225412902285206,-0.06800683653436143,0.0851567936130516,0.08467712517704072,0.08529318395771789,0.08644738333790104,0.08334788928602806,0.08639192865990741,0.08180628947094554,0.08382635072783837,0.0830882067189463,0.08707852954608554,0.08475627270415696,-0.06879764125319018
1.0329999923706055,car (1).jpg,0.07420475175437352,0.08654327232161431,0.08227089283119354,-0.06828205356383962,0.08514300258672268,0.08469326313653745,0.08530981365559263,0.08646186726830808,0.08335846166115542,0.08639695780240986,0.08181681714258399,0.0838319386639522,0.08310289181505344,0.08708483273802194,0.08476514634670572,-0.068962530072037
1.0329999923706055,car (1).jpg,0.07412426312258996,0.08652653086501728,0.0822563641972976,-0.06802317565955826,0.08516627075270065,0.08467924859276398,0.08529691669904192,0.08645303832924824,0.08334560940809362,0.08638401614237023,0.08176784447048241,0.08382004753590197,0.08308722324219027,0.08709086770902487,0.08475066241629868,-0.06857070399173545
1.0329999923706055,car (1).jpg,0.07421071967014309,0.086536924426189,0.08226116982235548,-0.06793303107417001,0.08514324845591169,0.08468474712189998,0.08530049297815477,0.08645353006762625,0.08335564534135405,0.08640013175012251,0.08185803375935957,0.08383397267269763,0.08309772856208426,0.08707515443267279,0.08476543691938364,-0.06907109249485642
1.0329999923706055,car (1).jpg,0.07415544380610511,0.08653831023434523,0.08226653424102476,-0.06815791197513485,0.08515663715084042,0.08469069268592509,0.08530853960615868,0.0864638118700757,0.08335159967560764,0.08638575957843775,0.08175937315933385,0.08382203684115849,0.08309533692542755,0.08709719325270572,0.08475490924774519,-0.06861815674521407
1.0339999198913574,car (1).jpg,0.07417343696039164,0.08652961540575212,0.08225381609842969,-0.0677140286819969,0.08515831353167456,0.08467815335728567,0.08529506150425213,0.08645002084374677,0.08334974448081785,0.08639338152329701,0.08183422915151467,0.08382834003309489,0.08308963723059144,0.08708020592691969,0.0847579043815022,-0.06879576370665594
1.0339999198913574,car (1).jpg,0.07421834161500235,0.08654260176928065,0.0822683670840701,-0.06798461890037286,0.08514242144136684,0.0846924361219926,0.08530847255092532,0.08646240371017501,0.08335694174253246,0.08639456616575314,0.08184627674177608,0.08382999406218458,0.08310108132375256,0.087081301162398,0.08476331350366038,-0.06896847563606211
1.0339999198913574,car (1).jpg,0.07413313676513872,0.08652460861499413,0.0822526091042291,-0.06773586633632973,0.08516477318582215,0.08467712517704072,0.08529608968449708,0.08645174192806983,0.08334614584996054,0.08638332323829212,0.08179187259577186,0.08381930992833495,0.08308722324219027,0.08708916897644627,0.08475046125059858,-0.06858071757325143
1.0339999198913574,car (1).jpg,0.07423195382737563,0.08653571743198842,0.08225788411592055,-0.06762598516058745,0.0851436954908008,0.08468324955502148,0.08529950950139874,0.08645303832924824,0.08335470656808693,0.086398388314055,0.08188226305034912,0.08383220688488566,0.08309665567835041,0.08707287455473835,0.08476434168390533,-0.06907104779136751
1.0339999198913574,car (1).jpg,0.07417395105051411,0.08653511393488812,0.08226208624387815,-0.06784561340160529,0.08515484901128399,0.08468814458705719,0.0853064832456688,0.08646162139911907,0.0833504150331515,0.08638415025283697,0.08178641877012477,0.0838201816463687,0.08309417463471587,0.08709457809860445,0.08475363519831124,-0.0686218447830492
1.0339999198913574,car (1).jpg,0.0741880102977765,0.08652655321676174,0.08224842932801596,-0.06739819853284341,0.08515601130199567,0.0846755382031844,0.08529251340538423,0.08644742804138995,0.08334844807963944,0.08639141456978494,0.0818444662504752,0.0838258813412048,0.08308845258813531,0.08707837308387435,0.08475631740764587,-0.0688006810904361
1.0339999198913574,car (1).jpg,0.07423038920526376,0.08654128301635779,0.0822641649561125,-0.06765562357373518,0.0851420414617111,0.08469118442430311,0.08530807021952512,0.08646218019273046,0.08335729937044374,0.0863943873517975,0.08185570917793622,0.08382909999240637,0.08310157306213058,0.08708105529320899,0.08476367113157167,-0.06899388956950779
1.0339999198913574,car (1).jpg,0.07414116104139817,0.08652465331848304,0.082249658673961,-0.0674227630999998,0.08516613664223392,0.08467696871482953,0.08529608968449708,0.0864508031548027,0.08334625760868282,0.08638245152025836,0.08179647705512966,0.08381832645157891,0.08308753616661264,0.08708887840376835,0.0847503494918763,-0.06860054357058329
1.0339999198913574,car (1).jpg,0.07423745235651164,0.08653611976338861,0.08225607362461967,-0.06732159910459508,0.08514534951989049,0.08468322720327702,0.08530006829501012,0.08645306068099269,0.0833556676930985,0.08639852242452173,0.08189136021034243,0.08383254216105249,0.08309737093417298,0.08707399214196111,0.08476514634670572,-0.06908977855322106
1.0350000858306885,car (1).jpg,0.07417927076569447,0.08653518099012149,0.08226139333980004,-0.0675666412790586,0.0851555419153621,0.08468809988356828,0.08530704203928018,0.08646182256481917,0.08335095147501843,0.08638352440399222,0.08180143914239874,0.08381971225973514,0.08309506870449408,0.08709466750558227,0.08475405988145589,-0.06864178253910333
1.0350000858306885,car (1).jpg,0.07419482757983537,0.08652485448418314,0.08224708822334864,-0.06713071520694676,0.08515668185432933,0.08467417474677262,0.08529168639083938,0.08644707041347867,0.08334692816101648,0.08638906763661713,0.08185986660240491,0.08382366851850373,0.08308713383521245,0.0870775460693295,0.08475446221285608,-0.06881997064590104
1.0350000858306885,car (1).jpg,0.07424809178687236,0.08653994191169047,0.08226277914795627,-0.06738603918385973,0.08514132620588853,0.08469004448533589,0.08530688557706899,0.08646057086712967,0.08335814873673304,0.0863950355523867,0.08187160126824394,0.08382992700695122,0.08310278005633116,0.08708159173507592,0.08476449814611652,-0.06900857466561493
1.0350000858306885,car (1).jpg,0.07417269935282461,0.0865249215394165,0.0822500610053612,-0.06715903486717163,0.085165846069556,0.08467719223227409,0.08529608968449708,0.08645194309376993,0.08334726343718331,0.08638318912782539,0.08181619129373924,0.08381922052135712,0.08308885491953551,0.08709001834273557,0.08475124356165452,-0.06859875543102686
1.0350000858306885,car (1).jpg,0.07427223167088409,0.0865362762255998,0.08225602892113076,-0.0670468738134949,0.08514555068559058,0.08468356247944385,0.08530009064675458,0.08645446884089338,0.08335613707973206,0.08639890240417747,0.08191246025710824,0.08383305625117496,0.08309846616965129,0.08707403684545002,0.08476554867810591,-0.06909471828874568
1.0350000858306885,car (1).jpg,0.0742280646238404,0.08653533745233268,0.08226027575257727,-0.06730052140957372,0.0851556983775733,0.084687988124846,0.08530731026021364,0.08646247076540838,0.08335133145467417,0.08638365851445895,0.08182298622405365,0.08382029340509098,0.08309614158822794,0.08709316993870377,0.08475446221285608,-0.06864654346067231
1.0350000858306885,car (1).jpg,0.07423660299022233,0.08652628499582828,0.08224648472624835,-0.0668761288376008,0.08515902878749713,0.08467515822352865,0.0852928263298066,0.08644778566930124,0.08334822456219489,0.0863901852238399,0.08187873147472519,0.08382494256793768,0.08308872080906878,0.08707642848210674,0.08475569155880112,-0.06881317571558662
1.0360000133514404,car (1).jpg,0.07428494981347916,0.08653938311807909,0.0822599628281549,-0.06713829244831711,0.08514108033669952,0.08468910571206877,0.08530520919623484,0.08645963209386255,0.0833560700244987,0.08639300154364127,0.08189317070164331,0.08382775888773905,0.08310121543421929,0.08707696492397367,0.0847625535443489,-0.06900960284585987
1.0360000133514404,car (1).jpg,0.07420063903339374,0.08652250755101533,0.08224619415357043,-0.06693033181790493,0.08516345443289929,0.08467489000259519,0.0852943238966851,0.08645062434084706,0.0833457658703048,0.08638137863652451,0.08183042935495727,0.08381758884401189,0.0830875585183571,0.0870861514909448,0.08474947777384255,-0.0686111382974551
1.0360000133514404,car (1).jpg,0.0742966844793182,0.0865356280250106,0.08225379374668523,-0.0668203165316959,0.08514483542976801,0.08468217667128762,0.08529901776302072,0.08645277010831477,0.08335674057683236,0.08639930473557766,0.08192115508570136,0.08383330212036397,0.08309938259117396,0.08707300866520508,0.08476581689903938,-0.06910676587900709
1.0360000133514404,car (1).jpg,0.0742461248333603,0.08653766203375603,0.08226123687758885,-0.06708028967145559,0.08515621246769577,0.08468961980219124,0.08530905369628115,0.08646513062299856,0.08335213611747457,0.08638439612202597,0.08183114461077984,0.08382062868125781,0.08309739328591743,0.08709316993870377,0.08475484219251182,-0.06866022272827896
1.0360000133514404,car (1).jpg,0.07424970111247314,0.0865272237690954,0.08224534478728113,-0.06666030039314036,0.08515838058690793,0.08467526998225093,0.08529354158562917,0.0864493055879242,0.08335028092268477,0.08639215217735197,0.08188570521899524,0.08382695422493866,0.08309169359108133,0.0870794012641193,0.08475736793963527,-0.06882178113720192
1.0360000133514404,car (1).jpg,0.07429847261887462,0.0865436746530145,0.08226394143866794,-0.06692445330911319,0.08514371784254525,0.08469234671501479,0.08530950073117026,0.08646450477415381,0.08335998157977838,0.08639702485764322,0.08189916096915734,0.0838317374982521,0.08310579754183263,0.0870815023280981,0.08476637569265076,-0.06902502554953403
1.0360000133514404,car (1).jpg,0.07421172549864358,0.08652630734757273,0.08224798229312685,-0.06675770929547659,0.0851656449038559,0.08467835452298576,0.08529758725137558,0.08645545231764941,0.08334853748661726,0.08638444082551489,0.08183132342473548,0.08382009223939088,0.08309207357073707,0.08709086770902487,0.08475249525934402,-0.06861209942246668
1.0360000133514404,car (1).jpg,0.07430685452304536,0.08653703618491128,0.08225339141528504,-0.06669715841974716,0.08514534951989049,0.08468425538352196,0.08530049297815477,0.0864562569804498,0.08335656176287672,0.0863996400117445,0.0819196351670784,0.08383316800989724,0.08310038841967445,0.08707421565940567,0.08476595100950611,-0.06911161620755389
1.497999906539917,car (1).jpg,0.07425115397586274,0.08653763968201157,0.0822603651595551,-0.06696841919045678,0.0851557430810622,0.08469046916848054,0.08530889723406997,0.08646557765788766,0.08335329840818624,0.08638569252320438,0.08183217279102478,0.08382161215801384,0.08309951670164069,0.08709455574686,0.08475654092509043,-0.06867797001337647
1.497999906539917,car (1).jpg,0.07425466319974222,0.0865272237690954,0.082244406014014,-0.06662558813400127,0.08515927465668614,0.08467607464505132,0.08529425684145174,0.08644881384954618,0.08335059384710715,0.08639219688084088,0.08188715808238484,0.08382682011447193,0.08309263236434845,0.0870789989327191,0.08475808319545784,-0.0688366450472647
1.497999906539917,car (1).jpg,0.07431154838938098,0.08654396522569242,0.08226239916830053,-0.0669046943670147,0.08514429898790109,0.08469277139815944,0.08530997011780382,0.08646410244275361,0.08336000393152283,0.08639715896810995,0.0819068276175055,0.08383182690522992,0.0831060657627661,0.08707996005773068,0.08476682272753987,-0.0690362461252506
1.497999906539917,car (1).jpg,0.0742253153592724,0.08652715671386203,0.08224668589194845,-0.06675062379248425,0.08516685189805649,0.0846795391654419,0.08529801193452023,0.08645587700079406,0.0833505714953627,0.0863861842615824,0.0818415158202071,0.0838218803789473,0.0830939064137824,0.08709194059275872,0.0847543057506449,-0.06860776318404235
1.499000072479248,car (1).jpg,0.07431494585453818,0.0865392266558679,0.08225332436005167,-0.06669619729473558,0.08514847876411423,0.08468597646784502,0.08530192348979991,0.08645793336128395,0.08335814873673304,0.08640046702628934,0.08193434261492999,0.08383433030060891,0.08310152835864167,0.08707403684545002,0.08476711330021779,-0.06910774935576312
1.499000072479248,car (1).jpg,0.07426054170853397,0.08653907019365671,0.08225949344152134,-0.06697358244342595,0.08515603365374012,0.0846915420522144,0.0853092772137257,0.0864665611346437,0.08335573474833187,0.086387637124972,0.0818526693406903,0.08382391438769274,0.08310177422783067,0.0870954498166382,0.0847585078786025,-0.06867683007440925
1.499000072479248,car (1).jpg,0.07426673314174809,0.08652966010924103,0.0822443613105251,-0.06662581165144582,0.08516106279624257,0.08467795219158557,0.08529573205658579,0.08645232307342567,0.08335265020759704,0.08639360504074156,0.08190501712620463,0.08382867530926172,0.08309468872483834,0.08708022827866414,0.0847594019483807,-0.06882591620992615
1.499000072479248,car (1).jpg,0.07431930444470697,0.08654700506293835,0.08226277914795627,-0.06689371966048713,0.08514646710711325,0.08469523009004952,0.0853124288096939,0.08646694111429944,0.08336391548680251,0.08640089170943399,0.08192955934161655,0.0838357831639985,0.0831109160913129,0.08708277637753205,0.08477080133805291,-0.06905634034351592
1.499000072479248,car (1).jpg,0.07423224440005355,0.08653064358599706,0.08224782583091567,-0.06673341294925367,0.08517009290100251,0.08468251194745445,0.08530210230375555,0.08645992266654047,0.08335204671049674,0.08638815121509447,0.08186011247159392,0.08382384733245937,0.08309658862311704,0.08709328169742604,0.08475633975939033,-0.06863644047217851
1.5,car (1).jpg,0.07432308188951992,0.08654231119660273,0.08225424078157434,-0.06668079694280588,0.0851521444502049,0.08468899395334649,0.0853052315479793,0.08646095084678541,0.08336219440247945,0.08640560792751406,0.08195191108607186,0.08383927003613353,0.08310680337033312,0.08707812721468534,0.08477198598050904,-0.06913785715554442
1.5,car (1).jpg,0.07426836481909332,0.08654409933615916,0.08226260033400062,-0.06697338127772585,0.08516128631368712,0.08469645943599456,0.08531490985332844,0.08647156792540169,0.08335928867570026,0.08639186160467405,0.08186894141065376,0.0838277812394835,0.08310597635578827,0.08709884728179541,0.08476246413737108,-0.06868708952511424
1.5,car (1).jpg,0.07427363983078478,0.08653395164417645,0.08224706587160419,-0.06663291950618261,0.08516613664223392,0.08468286957536574,0.08530053768164368,0.08645744162290593,0.08335774640533285,0.08639928238383321,0.08192146801012373,0.08383372680350862,0.0830999637365298,0.08708521271767768,0.08476481107053889,-0.06882669852098208
1.5,car (1).jpg,0.0743341907065142,0.08655158717055168,0.08226599779915783,-0.06690965645428378,0.08514999868273719,0.08470016982557414,0.08531680975160714,0.08647268551262445,0.08336758117289318,0.08640489267169149,0.08195014529825989,0.08383929238787799,0.08311426885298119,0.08708494449674421,0.08477460113461031,-0.06906443167500874
1.5,car (1).jpg,0.07424312969960328,0.08653453278953228,0.08225133505479515,-0.0667641018943908,0.0851734009591819,0.08468637879924522,0.08530511978925702,0.08646370011135342,0.08335510889948712,0.0863899840581398,0.0818851240736394,0.08382581428597144,0.08309927083245168,0.08709413106371534,0.08475904432046942,-0.06863340063493259
1.500999927520752,car (1).jpg,0.07433778933737151,0.0865432276181254,0.082255157203097,-0.06670473566111751,0.08515344085138331,0.08468946333998005,0.08530581269333513,0.08646186726830808,0.08336351315540232,0.08640556322402515,0.08198248827248672,0.08383947120183363,0.08310771979185579,0.08707674140652912,0.08477301416075399,-0.06913948883288966
1.500999927520752,car (1).jpg,0.07428928605190349,0.08654465812977054,0.08226295796191191,-0.06700094097863925,0.0851615992381095,0.08469623591855001,0.0853149322050729,0.08647087502132357,0.08335951219314482,0.08639159338374058,0.08189518235864429,0.08382749066680559,0.08310653514939965,0.08709728265968354,0.08476277706179346,-0.06870897188293598
1.500999927520752,car (1).jpg,0.0742863803251243,0.08653285640869814,0.08224610474659261,-0.06664016147138613,0.08516636015967848,0.08468146141546505,0.08529928598395418,0.08645536291067159,0.08335609237624315,0.08639738248555451,0.08194169633885579,0.08383140222208527,0.08309886850105148,0.08708302224672106,0.08476302293098247,-0.0688589073847422
1.500999927520752,car (1).jpg,0.07435014985205529,0.08655111778391812,0.0822650143224018,-0.06691350095433009,0.08515113862170441,0.0846991416453292,0.08531613919927349,0.08647208201552416,0.08336791644906001,0.08640549616879178,0.08195662730415193,0.08383897946345562,0.08311482764659257,0.0870853021246555,0.0847747575968215,-0.06909279603872252
1.502000093460083,car (1).jpg,0.07426646492081462,0.0865364773912999,0.08225173738619534,-0.06676879576072642,0.08517485382257149,0.08468720581379006,0.08530625972822424,0.08646539884393202,0.08335718761172146,0.08639230863956315,0.08189936213485743,0.08382740125982777,0.08310179657957513,0.08709654505211652,0.0847608548117703,-0.06863129957095379
1.502000093460083,car (1).jpg,0.07433566592164825,0.08654434520534816,0.08225665476997551,-0.06668631782368634,0.08515670420607378,0.08469189968012568,0.0853092772137257,0.08646508591950965,0.08336644123392596,0.08640898304092681,0.08199071371444627,0.08384190754197926,0.08311122901573527,0.08707966948505276,0.08477571872183308,-0.06915024002197266
1.502000093460083,car (1).jpg,0.07427824429014257,0.08654780972573874,0.08226599779915783,-0.06698272430690817,0.08516580136606709,0.08470090743314117,0.0853208330656091,0.08647784876559363,0.08336418370773598,0.08639599667739828,0.08190501712620463,0.08383129046336299,0.08311172075411329,0.0871015518428745,0.08476731446591788,-0.06871509626091674
1.502000093460083,car (1).jpg,0.07426190516494574,0.08653549391454386,0.08224941280477199,-0.06663924504986346,0.08517165752311438,0.08468606587482284,0.08530545506542385,0.08646249311715283,0.08336232851294618,0.08640279160771269,0.08195126288548266,0.08383656547505444,0.08310581989357708,0.08708838666539033,0.0847692590676855,-0.0688498996317267
1.503000020980835,car (1).jpg,0.07432766399713325,0.08655375528976385,0.0822690152846593,-0.06691978179452203,0.08515665950258487,0.0847041931395761,0.08532244239120988,0.08647807228303818,0.08337334792296265,0.08640992181419394,0.08198007428408555,0.08384365097804677,0.08312084026585105,0.08708901251423508,0.08478032318119087,-0.06909516532363479
1.503000020980835,car (1).jpg,0.0742398216414239,0.0865364773912999,0.08225421842982988,-0.06678379378125593,0.0851793018197181,0.08469033505801381,0.08531077478060421,0.08646917628874497,0.08336036155943412,0.08639481203494215,0.08190752052158362,0.08382974819299557,0.0831050599342656,0.08709931666842897,0.08476373818680503,-0.06865644528346601
1.503000020980835,car (1).jpg,0.07433991275309476,0.08654731798736072,0.0822591581653545,-0.06670243343143861,0.08516150983113167,0.08469511833132724,0.08531289819632747,0.08646859514338913,0.08337149272817286,0.08641360985202906,0.08199797803139425,0.08384617672517022,0.08311616875125989,0.08708474333104411,0.08478036788467978,-0.06917616804554082
1.503999948501587,car (1).jpg,0.07430645219164517,0.0865520789089297,0.08226941761605949,-0.06699857169372699,0.08517020465972479,0.0847045954709763,0.08532494578658888,0.08648187207959558,0.0833687211118604,0.08640035526756706,0.0819145836728315,0.08383509025992039,0.08311594523381534,0.08710579867432101,0.08477144953864212,-0.06873228475240287
1.503999948501587,car (1).jpg,0.07431186131380335,0.08653927135935681,0.08225151386875079,-0.06664244134932057,0.08517492087780486,0.08468801047659046,0.08530755612940265,0.08646488475380955,0.08336324493446885,0.08640337275306853,0.08195854955417509,0.08383665488203226,0.08310595400404382,0.08708907956946844,0.08476957199210787,-0.06886386947201127
1.503999948501587,car (1).jpg,0.07438425861409409,0.0865560798711872,0.08226876941547029,-0.06690956704730595,0.08515858175260803,0.08470352258724244,0.08532246474295434,0.08647807228303818,0.08337421964099641,0.08641106175316116,0.08198642217951085,0.08384425447514707,0.08312110848678451,0.0870889007555128,0.08478108314050235,-0.06911286790524339
1.503999948501587,car (1).jpg,0.07429914317120828,0.08654081362972423,0.08225573834845284,-0.06677827290037547,0.08518220754649729,0.0846919890871035,0.08531309936202756,0.08647098678004585,0.08336308847225767,0.08639747189253233,0.08191216968443032,0.08383189396046328,0.08310758568138905,0.08710139538066332,0.0847663533409063,-0.06866636945800417
1.503999948501587,car (1).jpg,0.07439498745143264,0.08654964256878407,0.08225938168279906,-0.06669545968716856,0.08516325326719919,0.08469601240110546,0.08531410519052805,0.08647007035852318,0.083370419844439,0.08641311811365104,0.08200562232799796,0.08384550617283656,0.08311502881229267,0.08708313400544333,0.08477931735269038,-0.06918486287413393
1.5049998760223389,car (1).jpg,0.0743541955178017,0.08655076015600684,0.0822669142206805,-0.06701158040899997,0.08516812594749044,0.08470309790409779,0.08532300118482126,0.08648017334701698,0.08336813996650456,0.08640057878501162,0.08191952340835612,0.08383517966689821,0.08311563230939296,0.08710541869466527,0.08477113661421974,-0.06873740330188313
1.5049998760223389,car (1).jpg,0.07434728882876501,0.08654264647276956,0.08225336906354058,-0.06665317018665912,0.08517802777028415,0.08469136323825875,0.08531050655967075,0.08646705287302171,0.0833663741786926,0.08640719490137039,0.08196373515888872,0.08384063349254531,0.08310928441396766,0.08709359462184842,0.08477276829156498,-0.0688562028236631
1.5049998760223389,car (1).jpg,0.07441242181210778,0.0865590303014553,0.08227060225851562,-0.06691803835845452,0.08516045929914227,0.08470705416286638,0.08532465521391096,0.08648057567841717,0.08337629835323075,0.08641385572121807,0.08199428999355912,0.08384716020192626,0.08312334366123005,0.08709194059275872,0.08478322890797006,-0.06912833531240646
1.50600004196167,car (1).jpg,0.07432949684017859,0.08654358524603668,0.08225815233685402,-0.06679465672906121,0.08518437566570945,0.08469540890400516,0.08531546864693983,0.08647494303881444,0.08336592714380349,0.08640057878501162,0.08192392670201382,0.08383562670178732,0.08311089373956844,0.08710546339815418,0.08476961669559678,-0.06864301188504837
1.50600004196167,car (1).jpg,0.0744236647395688,0.08655391175197504,0.0822633155898232,-0.06671506216705586,0.08516743304341233,0.08469987925289622,0.08531745795219635,0.08647478657660325,0.08337457726890769,0.08641709672416409,0.08201892161594887,0.08385011063219436,0.08311958856816155,0.08708755965084548,0.08478387710855927,-0.06916789790009235
1.50600004196167,car (1).jpg,0.07437869302972472,0.08655771154853244,0.08227308330215016,-0.06703120524063173,0.0851746973603603,0.08470875289544498,0.08532849971395727,0.08648638713197555,0.08337341497819602,0.08640565263100297,0.08194545143192428,0.08384112523092332,0.083121868446096,0.08710919613947822,0.0847768586608003,-0.06874596402000951
1.50600004196167,car (1).jpg,0.07436928294530903,0.0865455298478043,0.08225643125253096,-0.06665721585240553,0.08518191697381937,0.08469362076444874,0.08531274173411628,0.0864707632626013,0.08336764822812655,0.0864082901368487,0.08199156308073557,0.08384222046640163,0.08311134077445755,0.08709384049103742,0.08477404234099893,-0.06885823683240853
1.50600004196167,car (1).jpg,0.07443459474260744,0.08656155604857875,0.08227350798529481,-0.06692367099805725,0.08516403557825512,0.0847094457995231,0.08532648805695629,0.08648357081217418,0.08338114868177755,0.08641868369802042,0.08202359313054003,0.08385214464093979,0.08312843985896586,0.08709536040966039,0.08478807923651686,-0.06913703014099958
1.50600004196167,car (1).jpg,0.07434031508449496,0.0865493296443617,0.08226405319739022,-0.06681627086594949,0.08519076826462367,0.08470068391569661,0.08532020721676435,0.0864796592568945,0.08337017397525,0.0864047362094803,0.0819522910657276,0.08383962766404482,0.08311549819892623,0.08710819031097773,0.08477343884389864,-0.06867696418487598
1.50600004196167,car (1).jpg,0.0744338124315515,0.08655811387993263,0.08226729420033624,-0.06671436926297775,0.08517290922080388,0.08470350023549798,0.08532067660339791,0.08647760289640462,0.08337851117593183,0.08642118709339941,0.0820445590668391,0.0838538880770073,0.0831237683443747,0.08709073359855814,0.08478720751848311,-0.06920681228718904
1.5069999694824219,car (1).jpg,0.07439179115197553,0.08656233835963469,0.08227708426440766,-0.06703330630461053,0.08517892184006236,0.08471337970654723,0.08533212069655903,0.08648947167271039,0.08337795238232044,0.0864097877037272,0.08195937656871993,0.08384499208271409,0.08312647290545379,0.08711297358429117,0.0847808596230578,-0.06877088621507718
1.5069999694824219,car (1).jpg,0.07437822364309116,0.08655078250775129,0.08226070043572192,-0.06667675127705947,0.0851873037442331,0.08469860520346227,0.08531721208300734,0.08647514420451453,0.08337278912935127,0.08641296165143986,0.08199927443257266,0.08384695903622616,0.0831170628210381,0.0870996072411069,0.08477887031780128,-0.06886979268429193
1.5069999694824219,car (1).jpg,0.07444349073690065,0.08656776983353733,0.0822785147760528,-0.06694322877445565,0.08516982468006905,0.08471483256993682,0.08533245597272586,0.08648866700991,0.08338474731263486,0.08642223762538881,0.0820367136045353,0.08385605619621947,0.08313308902181256,0.08709902609575106,0.08479194608830763,-0.06916304757154555
1.5069999694824219,car (1).jpg,0.07434916637529926,0.08655221301939643,0.08226657894451367,-0.0668441211395408,0.08519286932860247,0.08470363434596472,0.08532380584762166,0.08648336964647409,0.08337348203342938,0.08640797721242632,0.08196100824606517,0.08384329335013549,0.08311965562339492,0.08711295123254671,0.08477708217824485,-0.06866028978351232
1.5069999694824219,car (1).jpg,0.0744418143560665,0.08656155604857875,0.08227017757537097,-0.06672807088232885,0.08517608316851653,0.08470721062507756,0.08532360468192156,0.08648231911448469,0.08338278035912279,0.08642527746263473,0.08204632485465108,0.08385822431543163,0.08312765754790992,0.08709618742420523,0.08479152140516298,-0.06919074138292568
1.5079998970031738,car (1).jpg,0.07440477751550406,0.0865668310602702,0.08228142050283199,-0.06705114299668587,0.08518298985755322,0.08471798416590502,0.08533574167916079,0.08649577486464678,0.08338179688236676,0.08641367690726243,0.08196787023161295,0.08384861306531585,0.08313042916422238,0.08711744393318223,0.08478477117833748,-0.0687757812471129
1.5090000629425049,car (1).jpg,0.07439956955904597,0.08655520815315344,0.08226564017124655,-0.06667469491656958,0.085192601107669,0.08470376845643145,0.08532268826039889,0.08648252028018479,0.08337938289396558,0.08641951071256526,0.08200785750244349,0.08385315046944028,0.08312354482693014,0.08710675979933259,0.0847852629167155,-0.0688652552801675
1.5090000629425049,car (1).jpg,0.07446680360636754,0.08657219547893948,0.08228327569762178,-0.0669160937566869,0.0851757478923497,0.08471988406418372,0.0853372839495282,0.08649494785010194,0.08338843535046998,0.08642617153241296,0.08203749591559123,0.08385891721950975,0.08313675470790323,0.08710258002311945,0.0847954106086982,-0.06917078127512709
1.5090000629425049,car (1).jpg,0.07437254629999951,0.08655569989153146,0.08226950702303731,-0.06682141176717421,0.0851976526019159,0.08470776941868895,0.08532751623720124,0.08648739296047604,0.08337728182998679,0.08641157584328363,0.08195528619948461,0.08384581909725894,0.08312372364088579,0.0871162592907261,0.08478047964340206,-0.06868147923725595
1.5099999904632568,car (1).jpg,0.07445645474868473,0.08656345594685745,0.08227178690097176,-0.06670967539664213,0.0851812017179968,0.08471004929662339,0.08532695744358985,0.08648437547497458,0.08338356267017873,0.08642561273880156,0.08204929763666363,0.08385777728054253,0.08312899865257724,0.08709714854921681,0.08479176727435199,-0.0692017831446866
1.5099999904632568,car (1).jpg,0.07442256950409049,0.0865665851910812,0.08228110757840962,-0.06703918481340228,0.08518448742443173,0.08471823003509403,0.08533641223149445,0.0864943667047461,0.08338376383587882,0.08641559915728558,0.08197254174620411,0.0838500882804499,0.08313215024854544,0.08711914266576083,0.08478626874521598,-0.06878675595364045
1.5099999904632568,car (1).jpg,0.07441628866389854,0.08655601281595383,0.08226646718579139,-0.06668812831498722,0.08519519391002582,0.08470461782272075,0.08532226357725424,0.08648100036156182,0.08337994168757697,0.0864196895265209,0.08201411599089098,0.08385328457990701,0.0831238130478636,0.08710852558714456,0.08478557584113787,-0.06886065082080971
1.5099999904632568,car (1).jpg,0.07448899888861166,0.08657465417082956,0.08228517559590048,-0.06693983130929844,0.0851788994883179,0.08472129222408441,0.08533871446117335,0.08649494785010194,0.08339189987086056,0.08642934548012561,0.082049364691897,0.08386218057420022,0.08313983924863806,0.08710767622085526,0.0847985622046664,-0.06917364229841737
1.5099999904632568,car (1).jpg,0.07440381639049248,0.0865588291357552,0.0822721668806275,-0.06685431353501242,0.08520189943336241,0.08470942344777864,0.08532975141164677,0.08648920345177692,0.08337978522536578,0.08641365455551797,0.08197455340320509,0.08384796486472665,0.0831258694083535,0.08712102021229508,0.08478284892831432,-0.06865613235904364
1.5099999904632568,car (1).jpg,0.07450129234806208,0.08656738985388159,0.08227505025566223,-0.06672042658572513,0.08518591793607687,0.0847124409332801,0.0853303325570026,0.08648694592558694,0.08338877062663681,0.08643008308769264,0.08206755901188362,0.08386235938815587,0.0831341172020575,0.0871046587353538,0.08479668465813216,-0.0691748269408735
1.5109999179840088,car (1).jpg,0.07447406792331551,0.08657244134812848,0.08228624847963434,-0.06704318577565978,0.08519063415415694,0.08472285684619628,0.08534300599610876,0.08650062519319358,0.08338973175164839,0.08642002480268773,0.08199308299935854,0.08385440216712978,0.08313760407419253,0.08712667520364227,0.08479123083248506,-0.06878651008445144
1.5109999179840088,car (1).jpg,0.07446776473137912,0.08655949968808886,0.0822683670840701,-0.06667556663460333,0.08519892665134986,0.08470747884601103,0.08532671157440085,0.08648544835870843,0.08338090281258854,0.08641922013988734,0.08201427245310217,0.08385203288221751,0.08312374599263024,0.08711149836915712,0.08478541937892668,-0.06884301529443446
1.5109999179840088,car (1).jpg,0.07453835154036897,0.08657405067372927,0.0822833204011107,-0.06690646015482667,0.08517896654355127,0.08472202983165143,0.08533967558618492,0.08649557369894668,0.08339265983017204,0.08642963605280353,0.0820525609913541,0.083861040635233,0.0831393698620045,0.08710872675284466,0.08479867396338868,-0.06915640910344233
1.5109999179840088,car (1).jpg,0.07442974441406064,0.08655887383924411,0.08227180925271621,-0.06682829610446644,0.08520232411650706,0.08471210565711328,0.08533185247562557,0.08649005281806622,0.0833802769637438,0.08641345338981787,0.08196713262404592,0.08384631083563696,0.08312508709729756,0.0871204614186837,0.08478240189342522,-0.06866263671668013
1.5109999179840088,car (1).jpg,0.07451056832201103,0.08656631697014773,0.08227323976436135,-0.06669282218132283,0.08518553795642113,0.08471418436934762,0.08533107016456963,0.08648768353315396,0.08338868121965899,0.08643008308769264,0.08205879712805714,0.083860794766044,0.08313255257994563,0.08710358585161994,0.08479634938196533,-0.06914478619632557
1.9760000705718994,car (1).jpg,0.07447395616459324,0.08657257545859522,0.08228513089241157,-0.06701370382472323,0.08519094707857931,0.08472560611076428,0.08534425769379826,0.08650100517284932,0.08338915060629255,0.08641998009919882,0.08197918021430733,0.08385265873106226,0.08313610650731403,0.08712370242162971,0.08479102966678496,-0.06877401545930092
1.9760000705718994,car (1).jpg,0.07443434887341843,0.08655869502528847,0.08226619896485793,-0.06666477074203142,0.08519961955542797,0.0847094457995231,0.08532876793489073,0.08648484486160814,0.08338365207715655,0.08642210351492208,0.0820074551710433,0.08385386572526285,0.08312582470486458,0.0871116548313683,0.08478834745745033,-0.06881889776216718
1.9769999980926514,car (1).jpg,0.07448631667927702,0.08657639760689707,0.08228188988946555,-0.06691008113742843,0.0851816487528859,0.08472582962820883,0.08534394476937589,0.08649812179781459,0.08339625846102934,0.08643263118656054,0.08205052698260867,0.0838639910655011,0.0831419179608724,0.08711002315402307,0.08480242905645717,-0.06912947525137368
1.9769999980926514,car (1).jpg,0.0743767037244682,0.0865632324294129,0.08227140692131601,-0.06685569934316865,0.08520607920957556,0.08471709009612681,0.08533793215011741,0.08649443375997946,0.0833868260248692,0.08641915308465398,0.08197283231888203,0.08385221169617316,0.08313058562643356,0.08712569172688624,0.08478857097489488,-0.06864169313212551
1.9769999980926514,car (1).jpg,0.07444843047242528,0.08657101083648334,0.08227348563355036,-0.06672270646365958,0.08519105883730159,0.08471883353219432,0.0853370380803392,0.08649123746052235,0.08339409034181718,0.0864347993057727,0.08206619555547184,0.08386575685331307,0.08313668765266986,0.08710758681387744,0.08480144557970114,-0.06912842471938428
1.9769999980926514,car (1).jpg,0.0743994578003237,0.08657840926389805,0.08228729901162374,-0.06707195247077376,0.0851970044013267,0.08473085877071128,0.08535098556887931,0.08650498378336237,0.08339670549591845,0.08642670797427988,0.08199587696741545,0.08386007951022142,0.08314263321669497,0.08712998326182166,0.08479827163198848,-0.0687783293459808
1.9769999980926514,car (1).jpg,0.07436832182029746,0.08656627226665882,0.08227171984573839,-0.06671001067280896,0.08520813557006544,0.08471662070949325,0.0853355852169496,0.08649049985295533,0.08339064817317106,0.08642894314872542,0.08202006155491609,0.08386137591139983,0.08313165851016742,0.08711838270644935,0.08479518709125365,-0.06881105229986337
1.9769999980926514,car (1).jpg,0.07442972206231618,0.08658310313023367,0.08228857306105769,-0.06694246881514417,0.08518918129076734,0.0847324457445676,0.08534897391187833,0.08650422382405089,0.08340213696982109,0.08643864380581902,0.08206000412225772,0.08387020485045968,0.08314728237954168,0.08711502994478106,0.08480810639954882,-0.06914534498993695
1.9769999980926514,car (1).jpg,0.07432167372961923,0.08656879801378227,0.0822778665754636,-0.06687776051494604,0.08521251651197868,0.08472292390142964,0.08534311775483104,0.08649914997805953,0.08339216809179402,0.0864247410207678,0.08197227352527064,0.08385750905960906,0.08313615121080294,0.0871310114420666,0.08479398009705306,-0.06865231021074178
1.9769999980926514,car (1).jpg,0.07439373575374314,0.08657760460109766,0.08228106287492071,-0.06671517392577814,0.08519836785773847,0.08472641077356467,0.08534392241763143,0.08649928408852627,0.08339907478083071,0.08644018607618643,0.08206328982869265,0.08387121067896017,0.0831421191265725,0.08711272771510216,0.08480663118441477,-0.06913725365844413
1.9779999256134033,car (1).jpg,0.07434885345087688,0.08658055503136576,0.0822911658634145,-0.06706482226429251,0.08519888194786095,0.08473416682889066,0.08535322074332484,0.08650936472527561,0.08339773367616339,0.08642816083766948,0.08199428999355912,0.08386157707709993,0.08314370610042883,0.08713134671823343,0.08479952332967798,-0.06878765002341866
1.9779999256134033,car (1).jpg,0.07430495462476666,0.08656700987422584,0.08227361974401709,-0.0666998406290818,0.08520882847414356,0.08471814062811621,0.08533710513557256,0.08649293619310096,0.0833935762516947,0.08643189357899352,0.0820114561333008,0.08386403576899001,0.08313530184451363,0.08712202604079557,0.0847981151697773,-0.06881205812836386
1.9779999256134033,car (1).jpg,0.07437328390756653,0.08658589709829058,0.08229174700877034,-0.06692753784984802,0.08519163998265743,0.0847353961748357,0.08535288546715801,0.0865065707572187,0.08340488623438909,0.08644186245702058,0.08204719657268483,0.08387275294932758,0.08315007634759859,0.08711782391283797,0.08481085566411682,-0.06915294458305175
1.9779999256134033,car (1).jpg,0.07427835604886485,0.08657320130743996,0.0822827169040104,-0.06687109969509836,0.0852165621777251,0.0847271483811317,0.08534691755138844,0.08650350856822832,0.08339505146682875,0.08642722206440236,0.08196583622286752,0.08386005715847697,0.08313798405384827,0.08713378305837906,0.08479650584417651,-0.06865523828926542
1.9779999256134033,car (1).jpg,0.07436130337253849,0.08657941509239854,0.08228343215983297,-0.0667131399170327,0.08520111712230648,0.0847271483811317,0.0853448388391541,0.0864992170332929,0.08340419333031097,0.0864444552593774,0.0820647203403378,0.08387568102785123,0.08314576246091872,0.08711657221514847,0.08481134740249484,-0.06913139750139684
1.9779999256134033,car (1).jpg,0.07432922861924512,0.0865878864035471,0.08229854193908476,-0.06706285531078045,0.08520668270667585,0.08474076059350498,0.08536006037712816,0.08651524323406735,0.08340508740008919,0.08643502282321726,0.0819920995226025,0.08386821554520316,0.08315021045806532,0.0871375157997031,0.08480685470185932,-0.06878852174145242
1.9790000915527344,car (1).jpg,0.07429735503165186,0.0865720837202172,0.0822785147760528,-0.06669619729473558,0.08521584692190252,0.08472325917759647,0.08534251425773075,0.08649809944607013,0.08339699606859637,0.08643464284356152,0.08201159024376753,0.08386651681262455,0.08313807346082609,0.08712466354664129,0.08480169144889015,-0.06880465970094915
1.9790000915527344,car (1).jpg,0.07437187574766585,0.08658779699656928,0.0822936692587935,-0.06692203932071202,0.08519479157862563,0.08473736312834777,0.0853555900282371,0.08650990116714254,0.08340875308617986,0.08644514816345551,0.08205399150299925,0.08387597160052915,0.08315363027496699,0.0871209084535728,0.08481508014381887,-0.06916063358314438
1.9790000915527344,car (1).jpg,0.07427500328719655,0.08657530237141876,0.08228519794764494,-0.06687183730266538,0.08521971377369329,0.08472900357592149,0.085349890333401,0.08650652605372978,0.08339717488255201,0.08642887609349205,0.08197021716478076,0.08386135355965538,0.08314024158003826,0.08713612999154687,0.08479900923955551,-0.06865253372818633
1.9790000915527344,car (1).jpg,0.07435050747996658,0.08658004094124329,0.08228410271216663,-0.0667179455420906,0.0852027040961628,0.08472793069218763,0.08534571055718786,0.0865002675652823,0.08340589206288958,0.08644584106753363,0.0820636698083484,0.08387635158018489,0.08314750589698623,0.08711876268610509,0.0848133143560069,-0.06912989993451833
1.9790000915527344,car (1).jpg,0.07431454352313799,0.08658994276403699,0.08229988304375208,-0.06706509048522598,0.085208604956699,0.08474216875340566,0.08536227319982924,0.0865165172835013,0.08340772490593491,0.08643698977672933,0.08199417823483685,0.08386971311208166,0.08315291501914442,0.08713919218053724,0.08480933574549386,-0.0688019327881256
1.9790000915527344,car (1).jpg,0.0742884813891031,0.08657557059235223,0.08228191224121001,-0.06669400682377896,0.08522063019521596,0.0847258966834422,0.08534620229556587,0.08650149691122734,0.08340244989424346,0.08643926965466377,0.08201494300543583,0.08387085305104888,0.08314319201030636,0.08713002796531057,0.08480683235011487,-0.06880208925033679
1.9800000190734863,car (1).jpg,0.07436432085803996,0.08659311671174964,0.08229921249141842,-0.06691506557644196,0.08520183237812905,0.08474192288421666,0.0853601944875949,0.08651443857126696,0.08341315637983755,0.08644908207047965,0.0820636698083484,0.08387988315580883,0.08315749712675775,0.0871247082501302,0.08481932697526538,-0.06915520210924174
1.9800000190734863,car (1).jpg,0.07426941535108272,0.0865804879761324,0.08229018238665847,-0.0668744301050222,0.08522503348887366,0.08473385390446829,0.08535415951659196,0.08651133167878768,0.08340236048726564,0.08643332409063866,0.0819842987637876,0.0838658909637798,0.08314538248126298,0.0871402650642711,0.08480408308554686,-0.06865101380956337
1.9800000190734863,car (1).jpg,0.07434149972695109,0.08658321488895594,0.08228709784592364,-0.06670690378032967,0.08520764383168743,0.08473108228815583,0.08534908567060061,0.08650379914090624,0.08340801547861283,0.08644767391057896,0.08208063478238997,0.08387843029241923,0.08315021045806532,0.08712021554949469,0.08481554953045244,-0.0691282682571731
1.9800000190734863,car (1).jpg,0.07430815092422377,0.08659182031057124,0.08230238643913107,-0.06706330234566955,0.08521278473291215,0.08474473920401802,0.08536390487717448,0.08651908773411367,0.08341136824028113,0.08644076722154227,0.0820127525344792,0.08387335644642788,0.0831572736093132,0.08714265670092781,0.08481358257694037,-0.0688115887417303
1.9800000190734863,car (1).jpg,0.0742792277668986,0.0865790351127428,0.08228508618892266,-0.06669832071045884,0.08522594991039632,0.08472991999744416,0.08534868333920041,0.08650558728046266,0.08340678613266779,0.08644369530006592,0.08202973986026524,0.08387483166156193,0.0831480199871087,0.08713447596245717,0.08481134740249484,-0.06880117282881412
1.9800000190734863,car (1).jpg,0.07435388259337933,0.08659812350250763,0.08230374989554284,-0.06691392563747474,0.08520820262529881,0.08474722024765256,0.08536448602253031,0.0865196241759806,0.08341840903978455,0.08645429002693773,0.08208278054985768,0.08388448761516662,0.08316324152508277,0.08712908919204344,0.08482509372533485,-0.06916456749016851
1.9800000190734863,car (1).jpg,0.07425642898755419,0.08658241022615555,0.0822922163954039,-0.06688232027081492,0.08522892269240888,0.08473604437542491,0.08535666291197096,0.08651403623986677,0.08340423803379989,0.08643497811972835,0.0820018001796961,0.08386705325449148,0.08314793058013088,0.08714149441021614,0.08480651942569249,-0.06865434421948721
1.9809999465942383,car (1).jpg,0.07433723054376012,0.08658667940934651,0.08229065177329203,-0.06671316226877716,0.08521298589861225,0.0847345468085464,0.08535288546715801,0.08650748717874136,0.08341320108332646,0.08645288186703705,0.08209174359938426,0.08388296769654366,0.08315566428371242,0.08712557996816396,0.08482120452179963,-0.06913023521068516
1.9809999465942383,car (1).jpg,0.07431072137483613,0.0865973858949406,0.08230728147116678,-0.06707792038654332,0.0852185067794927,0.08474988010524274,0.08536944810979939,0.08652463096673858,0.08341565977521655,0.08644546108787789,0.08202553773230764,0.08387742446391874,0.08316165455122644,0.08714652355271858,0.0848181199810648,-0.06882504449189239
1.9809999465942383,car (1).jpg,0.07427431038311844,0.08658249963313337,0.08228870717152442,-0.0667169397135901,0.08522939207904244,0.08473298218643453,0.08535208080435762,0.08650885063515314,0.08341007183910272,0.08644709276522312,0.08203816646792489,0.08387802796101904,0.08315121628656581,0.08713823105552566,0.08481458840544086,-0.0688105382097409
1.9809999465942383,car (1).jpg,0.07435287676487884,0.08660230327872077,0.0823077732095448,-0.06692773901554812,0.08521193536662285,0.08475084123025432,0.08536835287432108,0.08652340162079354,0.08342214178110859,0.0864585592101287,0.08208148414867927,0.08388822035649066,0.08316650487977324,0.08713398422407916,0.08482875941142552,-0.06918066074617633
1.9809999465942383,car (1).jpg,0.07426118990912317,0.08658900399076987,0.08229856429082921,-0.06690592371295974,0.08523408594537805,0.08474236991910576,0.08536251906901825,0.08652049589401435,0.08341239642052607,0.08644315885819899,0.08199232304004705,0.08387465284760628,0.08315523960056777,0.08715054686672054,0.08481418607404066,-0.06867982520816626
1.9809999465942383,car (1).jpg,0.0743446960264082,0.08659389902280558,0.0822972231861619,-0.0667147939461224,0.08521969142194884,0.08474154290456092,0.08535972510096133,0.08651479619917825,0.08341802906012881,0.08645735221592811,0.08208570862838133,0.08388685690007888,0.08315988876341447,0.08713139142172234,0.0848257195741796,-0.0691455685073815
1.9819998741149902,car (1).jpg,0.07431876800284004,0.0865998892903196,0.08230940488689004,-0.06705518866243228,0.08522069725044933,0.0847526517215552,0.08537271146448987,0.0865287213359739,0.08341869961246247,0.08644774096581233,0.08202632004336358,0.083879547879642,0.08316440381579444,0.08714925046554213,0.08482149509447755,-0.06883440987281916
1.9819998741149902,car (1).jpg,0.07428005478144345,0.08658612061573513,0.08229252931982628,-0.0667089377890751,0.0852347117942228,0.08473792192195916,0.08535786990617154,0.08651533264104518,0.0834144304292715,0.08645089256178053,0.08204824710467423,0.08388160424013189,0.08315564193196796,0.08714290257011682,0.08481972930666558,-0.06880553141898291
1.9819998741149902,car (1).jpg,0.07436376206442857,0.08660359967989918,0.0823092707764233,-0.06691743486135422,0.08521569045969134,0.0847537022535446,0.08537143741505591,0.08652776021096233,0.0834247345834654,0.08646061557061858,0.08210061724193302,0.08389020966174718,0.08316900827515224,0.08713575001189112,0.08483197806262709,-0.06918061604268742
1.9819998741149902,car (1).jpg,0.07427341631334022,0.08659012157799263,0.08229990539549653,-0.06690762244553834,0.0852370140239017,0.08474447098308456,0.08536508951963061,0.08652297693764889,0.0834133351937932,0.08644378470704374,0.082014853598458,0.08387530104819549,0.08315631248430162,0.08715043510799826,0.08481557188219689,-0.06866583301613724
1.9819998741149902,car (1).jpg,0.07434726647702056,0.08659479309258379,0.0822980725524512,-0.06672507574857184,0.08522172543069427,0.08474263814003923,0.0853610438538842,0.08651624906256784,0.08342129241481928,0.08646059321887413,0.08210870857342584,0.08388991908906926,0.08316330858031613,0.08713414068629034,0.0848293182050369,-0.06912250150710363
1.9819998741149902,car (1).jpg,0.07431684575281688,0.08660451610142185,0.08231400934624783,-0.06707577461907561,0.08522505584061811,0.084757256180913,0.08537751708954776,0.08653290111218705,0.08342419814159847,0.08645323949494833,0.08205235982565401,0.08388473348435563,0.08316983528969708,0.0871541678493223,0.08482728419629147,-0.06884104834092239
1.9819998741149902,car (1).jpg,0.07427339396159577,0.08658987570880362,0.08229653028208378,-0.0667179455420906,0.08523880216345812,0.08474185582898329,0.08536153559226221,0.08651884186492466,0.08341735850779515,0.0864533065501817,0.08206387097404849,0.08388386176632187,0.08315814532734696,0.0871461659248073,0.08482223270204457,-0.06880754307598388
1.9819998741149902,car (1).jpg,0.07434605948281997,0.08660612542702263,0.08231206474448022,-0.06691180222175148,0.08521790328239241,0.0847560044832235,0.08537360553426808,0.08652934718481865,0.08342848967653389,0.08646457182938717,0.08211004967809316,0.0838938976995823,0.08317265160949845,0.08714033211950446,0.08483575550744003,-0.06919040610675885
1.9830000400543213,car (1).jpg,0.07425511023463133,0.08659432370595023,0.08230359343333166,-0.06690757774204943,0.08523998680591426,0.08474833783487533,0.08536913518537702,0.08652684378943966,0.08341552566474982,0.08644622104718937,0.08201782638047056,0.08387715624298528,0.08315890528665844,0.08715403373885557,0.08481798587059806,-0.06868248506575644
1.9830000400543213,car (1).jpg,0.07432909450877839,0.08659586597631765,0.08229813960768456,-0.0667183925769797,0.08522317829408387,0.08474373337551754,0.08536269788297389,0.08651783603642417,0.08342055480725226,0.08646007912875166,0.08210367943092339,0.08388898031580214,0.08316248156577129,0.08713443125896826,0.08482853589398097,-0.06913381148979801
1.9849998950958252,car (1).jpg,0.07431521407547165,0.0866053431159667,0.0823128247037917,-0.06707376296207464,0.08522378179118416,0.08475658562857934,0.08537626539185826,0.08653196233891992,0.08342366169973155,0.08645364182634853,0.08203999931097022,0.08388417469074425,0.08316941060655243,0.0871539666836222,0.08482663599570227,-0.06884802208519246
1.9849998950958252,car (1).jpg,0.07426840952258223,0.08658869106634749,0.08229483154950518,-0.06671872785314653,0.08523620936110131,0.08474033591036033,0.08536059681899509,0.08651819366433545,0.08341590564440556,0.08645223366644784,0.08206179226181415,0.08388191716455426,0.08315760888548003,0.08714618827655175,0.084821271577033,-0.06879690364562316
1.9849998950958252,car (1).jpg,0.07435368142767923,0.08660681833110075,0.08231206474448022,-0.06690288387571382,0.08521754565448113,0.0847558033175234,0.08537458901102411,0.08653030830983023,0.08342851202827835,0.08646477299508727,0.08211376006767274,0.08389340596120429,0.08317309864438756,0.08714234377650544,0.08483618019058468,-0.06918801447010213
1.9849998950958252,car (1).jpg,0.07425777009222151,0.08659421194722795,0.08230392870949849,-0.0669086953292722,0.08524045619254782,0.08474838253836424,0.08536971633073286,0.08652751434177332,0.08341896783339593,0.08644939499490202,0.0820260071189412,0.08387990550755328,0.08316286154542703,0.08716009106160295,0.08482178566715547,-0.06867613717033114
1.9860000610351562,car (1).jpg,0.07433016739251225,0.0865996881246195,0.08230354872984275,-0.06672851791721796,0.08522907915462007,0.08474831548313087,0.08536716823186495,0.08652351337951582,0.08342560630149916,0.08646517532648747,0.08211438591651748,0.0838936518303933,0.08316847183328531,0.0871434166602393,0.08483423558881707,-0.06912592132400529
1.9860000610351562,car (1).jpg,0.07431340358417077,0.08660795827006797,0.08231720564570494,-0.06708795631980376,0.08522805097437512,0.08476074305304802,0.08538031105760467,0.08653741616456702,0.08342641096429955,0.08645587700079406,0.0820565172501227,0.08388627575472304,0.08317325510659875,0.08716004635811404,0.08482987699864829,-0.06886120961442109
1.9860000610351562,car (1).jpg,0.07427455625230744,0.0865918873658046,0.08229813960768456,-0.06673752567023344,0.08524018797161435,0.08474342045109516,0.08536350254577428,0.08652114409460356,0.08342122535958592,0.08645706164325019,0.08207236463694151,0.08388656632740096,0.08316391207741643,0.08715479369816705,0.08482672540268009,-0.06880691722713914
1.9860000610351562,car (1).jpg,0.07436552785224054,0.08661200393581438,0.08231733975617167,-0.06691698782646512,0.08522275361093921,0.08476098892223703,0.08537972991224883,0.08653565037675505,0.08343508344114821,0.08647089737306803,0.08213157440800362,0.0838993515252294,0.08318051942354672,0.08715052451497608,0.08484279630694345,-0.06919802805161811
1.9860000610351562,car (1).jpg,0.0742819770314666,0.0866024373891875,0.08231193063401349,-0.0669318517365279,0.08524687114320649,0.08475504335821192,0.08537626539185826,0.08653491276918802,0.08342477928695431,0.08645462530310456,0.08204567665406187,0.08388502405703355,0.08316905297864115,0.08716614838435034,0.08482735125152484,-0.06869690194093012
1.9860000610351562,car (1).jpg,0.07435674361666961,0.08660353262466582,0.08230696854674441,-0.06673113307131923,0.08523082259068758,0.08475001421570948,0.08536940340631048,0.08652518976034997,0.08342962961550111,0.08646855043990022,0.08213412250687152,0.08389716105427278,0.08317213751937598,0.08714714940156333,0.08483808008886339,-0.06915015061499484
1.9860000610351562,car (1).jpg,0.07434373490139662,0.08661350150269288,0.08232261476786312,-0.06708455885464655,0.08523227545407717,0.08476492282926117,0.08538601075244077,0.08654123831286888,0.08343329530159178,0.08646220254447491,0.08206986124156251,0.08389226602223707,0.08318011709214652,0.08716554488725005,0.08483694014989616,-0.06888686941705578
1.9869999885559082,car (1).jpg,0.07430444053464419,0.08659854818565228,0.08230450985485432,-0.06674407473135885,0.08524684879146203,0.08474943307035364,0.08537038688306652,0.08652809548712916,0.08342676859221083,0.08646200137877481,0.08206999535202925,0.08389108137978094,0.0831690753303856,0.08715964402671385,0.08483206746960491,-0.06882560328550377
1.9869999885559082,car (1).jpg,0.07438821487286268,0.08661582608411623,0.08231984315155066,-0.06692838721613732,0.08522738042204146,0.08476429698041642,0.0853831944326394,0.08653927135935681,0.08343722920861592,0.0864731101957691,0.08212292428289941,0.08390053616768553,0.08318275459799225,0.08715182091615449,0.08484541146104473,-0.0692203350925845
1.9869999885559082,car (1).jpg,0.07429514220895078,0.08660364438338809,0.08231159535784666,-0.06694418989946722,0.08524957570428558,0.08475763616056874,0.08537861232502607,0.08653725970235583,0.08342714857186657,0.08645699458801683,0.0820367583080242,0.08388634280995641,0.08317191400193143,0.08716822709658469,0.08483023462655957,-0.06869777365896387
1.9869999885559082,car (1).jpg,0.07436648897725212,0.08660525370898887,0.08230609682871065,-0.06671705147231238,0.08523549410527874,0.08475341168086668,0.08537195150517839,0.08652905661214073,0.08343213301088011,0.08647107618702367,0.08212683583817909,0.0838985021589401,0.08317511030138854,0.08714918341030876,0.08484078464994248,-0.06914628376320407
2.4579999446868896,car (2).jpg,0.07436067752369374,0.08661450733119337,0.08232035724167314,-0.06706956083411704,0.08523404124188914,0.08476612982346175,0.08538574253150731,0.08654246765881392,0.08343456935102574,0.08646349894565332,0.08207122469797429,0.08389286951933736,0.08318132408634711,0.08716639425353935,0.08483805773711893,-0.06889748649567205
2.4579999446868896,car (2).jpg,0.07432972035762314,0.08660062689788663,0.0823031240466981,-0.0667381962225671,0.08524903926241865,0.0847509529889766,0.08537092332493344,0.08653012949587459,0.08342936139456765,0.08646434831194262,0.0820801206922675,0.08389318244375973,0.08317186929844252,0.08716272856744868,0.08483452616149499,-0.06882066354997915
2.4600000381469727,car (2).jpg,0.07442402236748008,0.08661850829345087,0.08231950787538383,-0.06691546790784215,0.08523035320405402,0.08476644274788413,0.0853848484617291,0.08654240060358055,0.08344031374935075,0.08647610532952611,0.08213821287610684,0.08390391128109828,0.08318599560093827,0.08715535249177843,0.08484858540875738,-0.06922386666820844
2.4600000381469727,car (2).jpg,0.07432623348548811,0.08660670657237847,0.08231190828226903,-0.06694481574831197,0.0852521685066424,0.08475982663152536,0.08538120512738288,0.08654061246402413,0.08343021076085695,0.08645963209386255,0.08204996818899729,0.08388931559196897,0.08317488678394398,0.08717200454139763,0.08483318505682767,-0.06869611962987418
2.4600000381469727,car (2).jpg,0.07438839368681832,0.0866091429125241,0.08230721441593342,-0.06673745861500008,0.08523907038439159,0.0847564068146237,0.08537570659824688,0.08653301287090932,0.08343606691790424,0.08647498774230335,0.08213541890804993,0.08390263723166433,0.08317908891190158,0.08715439136676685,0.08484469620522216,-0.06913919826021174
2.4600000381469727,car (2).jpg,0.07438255988151549,0.08661824007251741,0.08232044664865096,-0.06709598059606321,0.0852366116925015,0.08476941552989668,0.0853892517553868,0.08654696035944943,0.08343810092664967,0.08646696346604389,0.08207701379978821,0.08389615522577229,0.08318503447592669,0.08717014934660784,0.08484181283018742,-0.06890200154805202
2.4609999656677246,car (2).jpg,0.07433492831408123,0.08660292912756552,0.08230189470075305,-0.06674993088840614,0.08525107327116409,0.08475274112853302,0.08537347142380135,0.08653211880113111,0.08342985313294567,0.08646463888462054,0.08207815373875543,0.08389266835363726,0.0831722269263538,0.08716297443663769,0.08483508495510637,-0.06882417277385863
2.4609999656677246,car (2).jpg,0.0744167133470432,0.08661913414229562,0.08231693742477147,-0.06690925412288358,0.08523042025928738,0.0847665545066064,0.08538580958674068,0.08654246765881392,0.083442437165074,0.08647789346908254,0.08214096214067484,0.08390455948168749,0.08318753787130569,0.08715638067202337,0.08485064176924727,-0.06923238268284591
2.4609999656677246,car (2).jpg,0.0743269934447996,0.08660988052009112,0.0823121765032025,-0.06694340758841129,0.0852549177712104,0.08476224061992653,0.0853839990954398,0.08654246765881392,0.08343407761264772,0.08646253782064174,0.08205707604373408,0.08389132724896994,0.08317861952526802,0.08717439617805435,0.08483696250164062,-0.06869902535665337
2.4619998931884766,car (2).jpg,0.07440142475383577,0.08661137808696963,0.0823077732095448,-0.06672123124852553,0.08524181964895959,0.08475783732626883,0.08537879113898171,0.08653455514127674,0.08343859266502769,0.08647623943999284,0.08214889700995648,0.08390299485957561,0.0831814805485583,0.08715584423015645,0.0848469760831566,-0.06914087464104589
2.4619998931884766,car (2).jpg,0.07439322166362067,0.08662143637197452,0.08232400057601935,-0.06707615459873136,0.08524034443382554,0.08477227655318696,0.08539412443567805,0.08654946375482843,0.08344359945578568,0.08647163498063505,0.08209818090178739,0.0838999997258186,0.08319039889459597,0.0871746196954989,0.0848474231180457,-0.06891778187963747
2.4619998931884766,car (2).jpg,0.07434909932006589,0.08660782415960123,0.08230824259617836,-0.066743247716814,0.08525739881484494,0.08475859728558031,0.08537975226399329,0.0865383772895786,0.08343731861559374,0.08647129970446822,0.08209764445992046,0.08389879273161802,0.08317973711249078,0.08717052932626358,0.08484250573426554,-0.068824239829092
2.4619998931884766,car (2).jpg,0.07443649464088614,0.08662431974700925,0.08232299474751886,-0.06690918706765021,0.08523694696866833,0.08477203068399795,0.08539195631646589,0.08654810029841666,0.08344777923199882,0.08648267674239597,0.08216266568454095,0.08390871690615617,0.08319321521439733,0.08716145451801473,0.08485627440885,-0.06923808237768202
2.4619998931884766,car (2).jpg,0.07435234032301191,0.08661327798524833,0.0823172727009383,-0.06695393526004974,0.08525822582938979,0.0847663086374174,0.08538871531351987,0.08654736269084963,0.08343845855456096,0.08646667289336597,0.08207772905561078,0.08389481412110497,0.08318293341194789,0.08717848654728967,0.08484158931274287,-0.06871637031035069
2.4630000591278076,car (2).jpg,0.07442809038497095,0.08661497671782693,0.08231244472413596,-0.0667339940946095,0.08524537357632798,0.08476154771584841,0.08538111572040506,0.08653806436515622,0.08344201248192935,0.08647990512608351,0.08215884353623909,0.08390596764158817,0.08318449803405976,0.08715977813718058,0.08485028414133598,-0.06915339161794086
2.4630000591278076,car (2).jpg,0.07442525171342512,0.08662452091270935,0.0823271298202431,-0.06709081734309404,0.08524222198035979,0.08477482465205487,0.08539513026417854,0.08655277181300781,0.08344563346453111,0.08647391485856949,0.08210989321588197,0.0839016984583972,0.0831924329033414,0.08717611726237741,0.0848492783128355,-0.06892940478675423
2.4639999866485596,car (2).jpg,0.07437625668957909,0.08661075223812488,0.08231079069504627,-0.06675647994953154,0.08525894108521236,0.084760005445481,0.08538127218261625,0.08653909254540117,0.0834390396999168,0.08647264080913554,0.0821144753234953,0.08390011148454088,0.08318134643809157,0.08717169161697526,0.08484389154242176,-0.06882660911400426
2.4639999866485596,car (2).jpg,0.07446164035339836,0.08662637610749914,0.08232511816324212,-0.06690882943973893,0.08523752811402417,0.08477294710552062,0.08539247040658836,0.08654897201645041,0.08344943326108852,0.08648450958544131,0.08217826720217075,0.08391052739745705,0.08319480218825366,0.0871630191401266,0.08485763786526178,-0.0692478947934979
2.4639999866485596,car (2).jpg,0.07437592141341226,0.08661642958121653,0.08232011137248413,-0.0669637029723767,0.08526012572766849,0.08476861086709629,0.0853903469908651,0.08655031312111773,0.08344270538600747,0.08647134440795713,0.08209225768950673,0.08389932917348494,0.08318785079572806,0.08718353804153657,0.08484594790291165,-0.06871400102543843
2.4639999866485596,car (2).jpg,0.07444762580962488,0.08662065406091858,0.08231771973582741,-0.06673515638532118,0.0852504697740638,0.08476720270719561,0.08538688247047453,0.08654454637104826,0.08344670634826497,0.08648484486160814,0.08217925067892679,0.08391063915617933,0.08318999656319577,0.08716500844538312,0.08485531328383843,-0.06914208163524647
2.4639999866485596,car (2).jpg,0.07444246255665571,0.08662805248833329,0.08233041552667802,-0.06708909625877098,0.0852454182798169,0.08477866915210118,0.08539962296481406,0.0865567280717764,0.0834502379238889,0.08647914516677203,0.08212826634982423,0.08390654878694401,0.0831979314324774,0.08718063231475738,0.0848543745105713,-0.06893036591176581
2.4649999141693115,car (2).jpg,0.07439796023344519,0.08661593784283851,0.08231575278231534,-0.06676110676063379,0.08526477489051519,0.0847657051403171,0.08538703893268572,0.08654608864141568,0.0834453428918532,0.08647968160863896,0.082129629806236,0.0839067499526441,0.08318885662422855,0.0871784194920563,0.084850775879714,-0.06882453040176992
2.4649999141693115,car (2).jpg,0.07448808246708899,0.0866333945552581,0.08233182368657871,-0.06691247277408514,0.0852445689135276,0.0847800102567685,0.08539933239213614,0.08655659396130967,0.08345580350825828,0.08649146097796691,0.08219366755410046,0.083917054106838,0.083202133560435,0.08716883059368498,0.08486443279557619,-0.0692571484157024
2.4649999141693115,car (2).jpg,0.07440243058233625,0.08662275512489738,0.0823260792882537,-0.06697259896666992,0.08526582542250459,0.08477439996891022,0.08539669488629041,0.08655556578106473,0.08344847213607694,0.0864771111580266,0.08210765804143644,0.08390489475785431,0.08319419869115337,0.08718820955612773,0.0848518264117034,-0.0687147609847499
2.4649999141693115,car (2).jpg,0.07446443432145528,0.08662512440980964,0.0823225253608853,-0.06674123605981302,0.08525563302703297,0.08477151659387548,0.08539128576413223,0.08654964256878407,0.08345213782216761,0.08649007516981068,0.08219643917041292,0.0839160035748486,0.0831958303684986,0.08717028345707457,0.0848611247373968,-0.06913982410905649
2.4649999141693115,car (2).jpg,0.07445819818475224,0.08663457919771424,0.08233712105001462,-0.06709935570947596,0.08525167676826438,0.08478494999229312,0.08540556852883917,0.0865645288305913,0.08345770340653698,0.08648569422789744,0.08214894171344539,0.08391320960679169,0.0832057321912923,0.08718756135553853,0.08486206351066393,-0.06894400047588355
2.4660000801086426,car (2).jpg,0.07440511279167089,0.08662051995045185,0.08232087133179561,-0.06677123210087205,0.08526982638476209,0.08477004137874143,0.08539204572344371,0.0865514754118294,0.0834499920546999,0.08648296731507389,0.08214590187619947,0.08391021447303468,0.08319357284230862,0.08718326982060311,0.08485513446988278,-0.0688252903610814
2.4660000801086426,car (2).jpg,0.07449203872585758,0.08663618852331502,0.08233455059940226,-0.06691678666076502,0.08524763110251797,0.08478249130040304,0.08540194754623741,0.08655990201948906,0.0834603409123827,0.08649510431231312,0.08220873262986333,0.0839208091999065,0.08320635804013705,0.08717365857048733,0.08486879138574498,-0.06925743898838031
2.4660000801086426,car (2).jpg,0.07440330230037001,0.08662646551447696,0.08232961086387763,-0.06698542886798727,0.08526855233532814,0.08477833387593435,0.08540015940668098,0.08656090784798955,0.08345296483671245,0.086480910954584,0.08211635287002955,0.08390851574045607,0.0831987807987667,0.08719310458816344,0.0848562297053611,-0.0687294684326015
2.4660000801086426,car (2).jpg,0.07446532839123349,0.08663080175290129,0.08232701806152082,-0.06673339059750921,0.08526204797769164,0.08477701512301149,0.0853966501828015,0.0865550293391978,0.08345832925538173,0.08649575251290233,0.08220365878387198,0.08392147975224015,0.0832025358918352,0.08717645253854424,0.08486711500491083,-0.06915401746678561
2.4660000801086426,car (2).jpg,0.07445097857129318,0.08663994361638351,0.08234179256460578,-0.06709166670938334,0.08525818112590088,0.08479006854177339,0.08541100000274181,0.08656814981319307,0.08346089970599409,0.08648877876863227,0.08216215159441848,0.08391627179578207,0.0832090849529606,0.08719002004742861,0.08486548332756559,-0.06895810442663484
2.4660000801086426,car (2).jpg,0.07439121000661969,0.08662150342720788,0.08232134071842917,-0.06677697649919706,0.08527206155920762,0.08477174011132003,0.08539307390368865,0.08655283886824118,0.08345093082796702,0.08648448723369685,0.08215406026292565,0.08391146617072417,0.08319504805744267,0.08718456622178151,0.08485672144373911,-0.06882985011695028
2.4670000076293945,car (2).jpg,0.07447958880419597,0.08663938482277213,0.08233653990465878,-0.06692201696896756,0.08525076034674171,0.08478664872487172,0.08540532265965016,0.08656354535383527,0.08346416306068456,0.08650002169609329,0.08220884438858561,0.083925056031353,0.08321091779600594,0.08717788305018938,0.08487348525208059,-0.06927134177343151
2.4670000076293945,car (2).jpg,0.07439015947463029,0.08663182993314623,0.08233338830869058,-0.06699828112104907,0.0852736708848084,0.08478454766089293,0.08540579204628372,0.08656649578410337,0.08345582586000273,0.08648433077148567,0.08211662109096302,0.08391133206025744,0.08320226767090173,0.08719650205332065,0.08485953776354048,-0.06873022839191298
2.4670000076293945,car (2).jpg,0.0744514703096712,0.08663256754071326,0.08232721922722092,-0.06673931380978987,0.08526374671027025,0.08477904913175692,0.08539857243282466,0.08655730921713224,0.0834596927117935,0.08649754065245875,0.0822045975571391,0.08392273144992965,0.08320380994126915,0.08717839714031185,0.08486865727527824,-0.06915229638246255
2.4670000076293945,car (2).jpg,0.07444943630092576,0.08664300580537389,0.08234261957915062,-0.06709595824431876,0.08525947752707928,0.08479304132378594,0.08541334693590961,0.08657246369987294,0.08346461009557367,0.08649277973088977,0.08216311271943005,0.0839197586679171,0.08321246006637335,0.08719343986433027,0.08486914901365626,-0.0689756281942878
2.4670000076293945,car (2).jpg,0.07440124593988012,0.08662832070926675,0.08232540873592004,-0.06678350320857801,0.08527706834996561,0.08477748450964505,0.08539868419154693,0.08655887383924411,0.08345853042108183,0.08649125981226681,0.08215937997810602,0.08391779171440503,0.08320199944996827,0.08719194229745177,0.08486373989149808,-0.06883219705011809
2.4670000076293945,car (2).jpg,0.0745013817550399,0.0866472973403093,0.08234228430298379,-0.06692608498645843,0.0852584716985788,0.08479324248948604,0.08541238581089804,0.0865706308568276,0.08347082388053224,0.0865053190595292,0.08222241189746998,0.0839301075255999,0.08321632691816412,0.0871834709863032,0.08487952022308352,-0.06928437284044896
2.4670000076293945,car (2).jpg,0.0744159086842428,0.08663679202041531,0.08233656225640323,-0.06701292151366729,0.08527861062033303,0.08478819099523914,0.08541026239517478,0.08657060850508315,0.08346116792692755,0.08648875641688782,0.0821310826696256,0.0839157577056596,0.0832067380197928,0.08720124062314517,0.08486452220255401,-0.06874281242404132
2.4679999351501465,car (2).jpg,0.07447516315879382,0.08663773079368244,0.08233171192785643,-0.06674917092909466,0.08526960286731754,0.08478374299809253,0.08540404861021621,0.08656193602823449,0.08346467715080703,0.08650203335309427,0.08221546050494438,0.08392717944707626,0.08320810147620457,0.08718378391072558,0.0848735299555695,-0.06916595329832474
2.4679999351501465,car (2).jpg,0.07447464906867135,0.08664682795367575,0.08234554765767427,-0.06710105444205457,0.08526307615793659,0.08479663995464325,0.08541797374701186,0.08657528001967431,0.08346916985144255,0.08649702656233628,0.08217236634163455,0.0839235584644745,0.08321652808386422,0.08719820078589925,0.08487386523173633,-0.06898651349383754
