Timestamp,Filename,1/Fp1,2/Fp2,3/Cz,4/Pz,5/P7,6/P8,7/O1,8/O2,9/CP5,10/CP6,11/CP1,12/CP2,13/PO3,14/PO4,15/P3,16/P4
0.27300000190734863,car (1).jpg,0.06173670282801423,0.07065451242381482,0.06551743334739606,-0.05458850319248476,0.0678494579016516,0.06837125937596075,0.06917449166470667,0.0698290848528248,0.06162351359409256,0.07025184574745247,0.05950029903653849,0.06853751165121932,0.06732376722380724,0.07003755957335944,0.06820813634492592,-0.054112522794309
0.27300000190734863,car (1).jpg,0.06182441107325686,0.07067409255195767,0.06553263253362566,-0.05464467312630095,0.06782022181990406,0.06838641385870145,0.06918665101369036,0.06983871845468503,0.061643049018746496,0.0702713811721064,0.05960354174417755,0.06855510247410565,0.06733847467165884,0.0700344303291357,0.06822793999051333,-0.05448443347030085
0.27300000190734863,car (1).jpg,0.061751454979354733,0.07067143269436749,0.06553661114413871,-0.054891279922876346,0.06784599338126103,0.06839070539363687,0.06919304361260457,0.06984857557398982,0.061660818655588465,0.07025685253821046,0.05947752260893853,0.06854381484315572,0.06733818409898092,0.07005269170435569,0.0682160488624631,-0.05400257456333334
0.27300000190734863,car (1).jpg,0.06178388736055939,0.07066895165073295,0.06552809512950124,-0.05455808246828109,0.06784523342194955,0.06838250230342177,0.0691834770659777,0.06983663974245069,0.06160087127695933,0.0702711353029174,0.05957350099962962,0.06855575067469485,0.06733387021230104,0.07004162759085031,0.06822583892653453,-0.05435698382341669
0.2739999294281006,car (1).jpg,0.06180941305272735,0.07068674363931937,0.06554984337685625,-0.05493929146996635,0.067831755320043,0.06840407173682114,0.06920511355461044,0.06986060081250678,0.06170617034508828,0.07027395162271877,0.0595509033859853,0.06855955047125226,0.06735295860206587,0.07005418927123419,0.06823390790628289,-0.05430573127338067
0.2739999294281006,car (1).jpg,0.06174845984559772,0.07067031510714472,0.06553368306561506,-0.05466528143468874,0.06786695931756011,0.0683880902395356,0.06919096490037023,0.06984761444897825,0.061638243393688605,0.07026615086390386,0.05951771104546917,0.06855199558162636,0.06733717827048043,0.07005197644853312,0.06822282144103306,-0.05414461989934682
0.2739999294281006,car (1).jpg,0.06184745572179028,0.07068835296492015,0.06554720587101052,-0.05466879065856822,0.0678372091456901,0.06840100954783077,0.06920169373770878,0.0698571362921162,0.061660483379421635,0.07028767559381432,0.059616461052472716,0.0685704804742909,0.06735376326486626,0.07004954010838749,0.06824410030175451,-0.05435991190194033
0.2739999294281006,car (1).jpg,0.06177780768606755,0.07068573781081888,0.06555098331582347,-0.05486072508820594,0.0678627124861136,0.06840427290252124,0.0692076840052228,0.06986388651894171,0.06170760085673342,0.07027162704129541,0.05951386654542286,0.06855682355842871,0.06735208688403212,0.07006404639053898,0.06822966107483638,-0.054065673537930674
0.2739999294281006,car (1).jpg,0.06180304280555759,0.07068502255499631,0.06554423308899797,-0.05448244416504433,0.06786409829426983,0.06839788030360702,0.0691990338801186,0.06985402939963692,0.06164517243446975,0.07028886023627046,0.0596071180232904,0.06857159806151367,0.06735032109622015,0.07005512804450131,0.06824336269418749,-0.05441176794907664
0.27500009536743164,car (1).jpg,0.061829864898903956,0.07070491560756154,0.06556703186834238,-0.054869755192965886,0.06784979317781843,0.06842014264108451,0.06922024568560668,0.06987483887372481,0.061749309211887024,0.07029190007351638,0.05959182943008297,0.06857555432028226,0.06736900715458478,0.07006849438768559,0.06824955412740161,-0.05419707944358342
0.27500009536743164,car (1).jpg,0.06175576886603461,0.07068839766840906,0.06555158681292376,-0.05466722603645635,0.06788419251253516,0.06840527873102173,0.06920674523195568,0.0698621430828742,0.06169345220249321,0.07028472516354622,0.059569745906561125,0.06856925112834586,0.06735485850034457,0.07007039428596429,0.06824106046450859,-0.05426181009552599
0.27500009536743164,car (1).jpg,0.06185284249220401,0.07070797779655191,0.06556680835089783,-0.05477744248836547,0.06785553757614345,0.06842148374575183,0.06922015627862886,0.06987436948709125,0.06170395752238721,0.07030611578298995,0.05966424908211816,0.06858860773904416,0.06737151054996378,0.07007057309991993,0.06826303222930816,-0.05442517899574983
0.2760000228881836,car (1).jpg,0.06178755304665006,0.07070670374711796,0.06557150221723344,-0.05509635717825379,0.06788048212295558,0.06842611055685408,0.06922757705778802,0.06988348899882901,0.06174488356648487,0.07029185537002747,0.059566124923959365,0.06857725305286086,0.06737184582613061,0.0700878957018728,0.06825038114194645,-0.05407226730254499
0.2760000228881836,car (1).jpg,0.061829775491926135,0.07070531793896173,0.06556446141773002,-0.0548262363465114,0.06788175617238953,0.06841971795793986,0.06921997746467322,0.06987539766733619,0.06168008585930894,0.07030743453591282,0.05966592546295231,0.06859137935535661,0.0673690965615626,0.07007846326571265,0.06826356867117508,-0.054471424755027864
0.2760000228881836,car (1).jpg,0.06187295906221379,0.07072523334327141,0.0655877742871969,-0.05527456763679595,0.06786762986989377,0.0684420026471618,0.06924268683703981,0.06989654241759091,0.06177680185756706,0.07031259778888199,0.059656761247725634,0.06859739197461509,0.06738974957343931,0.07009098024260763,0.06827221879627929,-0.054285882924304356
0.2760000228881836,car (1).jpg,0.06181817493655383,0.07071240344195406,0.06557624078705797,-0.05513314814962723,0.06790506904185642,0.06843004446387821,0.06923260620029047,0.0698878475889978,0.06172297885691867,0.07030984852431399,0.05964639003829837,0.06859589440773659,0.06737957952971214,0.07009283543739742,0.06826745787471031,-0.05426724156942863
0.2760000228881836,car (1).jpg,0.0619334652344543,0.07073401757884235,0.06559405512738885,-0.055295041834717014,0.06787905161131044,0.06844776939723127,0.06924731364814206,0.06990081160078188,0.061748638659553365,0.07033354137343661,0.05976456371123358,0.06861753089636932,0.0673979526636544,0.07009124846354109,0.06829175422093323,-0.05453941876166091
0.2760000228881836,car (1).jpg,0.06189399205374623,0.07073555984920976,0.06560306288040434,-0.055714271153720754,0.06790598546337909,0.068455905432213,0.06925871303781427,0.06991297094976556,0.06180241695671284,0.07032249961167569,0.059687047861462575,0.0686090372334763,0.06740168540497844,0.07010745347827119,0.06828212061907299,-0.05413997073650011
0.27699995040893555,car (1).jpg,0.06194363527818147,0.07073656567771025,0.06559928543559139,-0.05559424228599576,0.06791025464657005,0.06845291029845599,0.06925401917147865,0.06990941702239717,0.06175965806956983,0.07034228090551864,0.05981308934844605,0.06862700803601837,0.06740304886139022,0.07010137380377934,0.06829908559311457,-0.054551287537966675
0.27699995040893555,car (1).jpg,0.061980269787343716,0.07075965502973258,0.06562536992137073,-0.05617641582207868,0.06790024106505407,0.06847868185981296,0.06927934369794651,0.06993431686572038,0.061865493579565715,0.07034941111199988,0.059811636485056455,0.06863416059424407,0.06742488651572305,0.07011567892023074,0.06830936739556401,-0.05444616728379337
0.27699995040893555,car (1).jpg,0.06190749250739724,0.07074742862551553,0.06561397053169853,-0.05614250822573998,0.0679399377632067,0.06846734952537412,0.06926966539259737,0.06992533146444935,0.061815090395819,0.07034677360615416,0.0597897094237458,0.06863192541979854,0.06741511880339608,0.07012028337958853,0.06830375710770573,-0.05433362625046089
0.27699995040893555,car (1).jpg,0.06199944758408637,0.07076886394844817,0.06563098020922901,-0.05630639121608629,0.06791628961757298,0.06848406863022669,0.06928316584624837,0.06993753551692194,0.06182850144249218,0.07036948297852075,0.05989263920696249,0.0686523996177196,0.06743170379778192,0.07012296558892317,0.0683265782387946,-0.05461574996897578
0.27699995040893555,car (1).jpg,0.061920545926159136,0.07077096501242697,0.06563971974131104,-0.05665315617956593,0.06794425164988657,0.06849155646461921,0.0692934029452089,0.06994864433391623,0.06186598531794373,0.07035846356850428,0.05979248104005826,0.06864404006529332,0.06743532478038368,0.07014343978684423,0.06831710109914554,-0.05418599297833359
0.27699995040893555,car (1).jpg,0.06193534278098855,0.07077100971591588,0.06563419886043058,-0.05641877578720758,0.0679506889522897,0.0684858120662942,0.06928656331140558,0.06994120120301262,0.06180632851199252,0.0703756073565015,0.059886626587704016,0.06865961923117866,0.06743478833851675,0.07013879062399753,0.06833136151210803,-0.05453577542731469
0.2780001163482666,car (1).jpg,0.061954788798664666,0.07079065689929209,0.06565675177058598,-0.056872247978716844,0.06793750142306107,0.06850769442411594,0.06930887035237197,0.06996312826432327,0.061893835591535044,0.0703781554553694,0.05986306784904812,0.06866243555098003,0.06745244621663644,0.07015077115902557,0.06833762000055552,-0.05435591093968283
0.2780001163482666,car (1).jpg,0.06186383955047602,0.07077400484967289,0.06564135141865628,-0.05678208104158414,0.06797216897871125,0.06849260699660861,0.06929581693361007,0.06995090186010622,0.061841845433932,0.07037223224308875,0.05982746152013082,0.06865695937358848,0.06743963866706355,0.0701526040020709,0.06832946161382933,-0.054300031578544565
0.2780001163482666,car (1).jpg,0.061946317487516105,0.07079416612317158,0.06565655060488589,-0.05692303114211931,0.06794657623130992,0.06850756031364921,0.06930773041340475,0.06996151893872249,0.06185308836139302,0.07039453928405515,0.05991865663750847,0.06867667361219806,0.06745539664690454,0.07015305103696001,0.06835154513735117,-0.054547912424553924
0.27900004386901855,car (1).jpg,0.06187032155636806,0.07079671422203948,0.06566640772419068,-0.05726505753577441,0.06797245955138917,0.06851679158410925,0.06931879452691013,0.06997439354352875,0.06188420198967481,0.07038327400484967,0.05981469867404684,0.06866771056267149,0.06745823531845037,0.07017099948775762,0.06834117392792391,-0.054176873466595825
0.27900004386901855,car (1).jpg,0.061892405079889905,0.07079438964061613,0.06565943397992062,-0.057021155300278105,0.06797652756888004,0.06851057779915068,0.06931030086401711,0.06996643632250266,0.061824723997679236,0.0704002613306357,0.05990967123623744,0.06868373676344594,0.06745821296670591,0.07016619386269973,0.06835592607926441,-0.05456221754100532
0.27900004386901855,car (1).jpg,0.06192018829824785,0.07081517676295958,0.0656835962156768,-0.05747312992490887,0.06796260243208438,0.06853337657849509,0.06933417252709538,0.06998878806695796,0.061913259257466706,0.07040379290625964,0.05989541082327495,0.06868811770535918,0.0674771225425151,0.07017698975527165,0.06836339156191248,-0.054408325780430526
0.27900004386901855,car (1).jpg,0.061852820140459557,0.07079899409997392,0.06566958167190333,-0.05742163150568384,0.0679959512348117,0.06851880324111023,0.06932156614322259,0.06997747808426358,0.06186522535863225,0.07039699797594523,0.05986340312521495,0.06868257447273426,0.06746471732434241,0.07017745914190521,0.06835485319553056,-0.054361521227541114
0.27900004386901855,car (1).jpg,0.061969317432560615,0.07081877539381688,0.06568471380289957,-0.05760914028991941,0.06797123020544413,0.06853337657849509,0.06933309964336153,0.0699879163489242,0.06187141679184637,0.07041959558958955,0.05995777219030526,0.0687035627607778,0.06748107880128369,0.07017828615645005,0.06837805430627517,-0.05461992974518892
0.27900004386901855,car (1).jpg,0.06192063533313696,0.07082172582408498,0.0656953532332603,-0.05805581755111427,0.06799664413888981,0.06854285371814414,0.0693458177859566,0.07000123798861957,0.061915829708079066,0.07040902321446219,0.05985620586350034,0.06869504674614033,0.06748621970250841,0.07019589933108084,0.0683695382916377,-0.05422475090321909
0.2799999713897705,car (1).jpg,0.06196440004878045,0.07082143525140706,0.06568947472446855,-0.05787222032215838,0.06800379669711551,0.06853719872679695,0.06933911226262,0.06999312430538229,0.061861827893475045,0.07042609994722604,0.059937163881917464,0.06871107294691478,0.06748604088855277,0.07019194307231225,0.06838375400111127,-0.05458713973607299
0.2799999713897705,car (1).jpg,0.06200239801435447,0.0708447257691295,0.06571587213467027,-0.05837001602292252,0.06799248671442112,0.06856323850908738,0.06936445914083232,0.07001999110221757,0.0619465186532162,0.07043566649385291,0.05992446809106685,0.06872052773481938,0.06750955492371975,0.07020615878178582,0.06839647214370634,-0.054487607418013506
0.2799999713897705,car (1).jpg,0.061938404969978926,0.07083334873120174,0.06570681967816587,-0.0583699266159447,0.06802836126427189,0.06855409664560516,0.06935647956806178,0.07001355379981444,0.06190890066729792,0.07043164317985096,0.05989588020990851,0.06871735378710672,0.0674996307491816,0.07020597996783018,0.068389386640714,-0.054471760031194694
0.2799999713897705,car (1).jpg,0.06205615395976948,0.07085520873727903,0.06572427639058546,-0.05860571516820373,0.06800542837446075,0.06857170982023594,0.0693702705943907,0.07002654016334298,0.06191929422846964,0.07045710181678555,0.05999465256865651,0.06874053254610688,0.06751795917963495,0.07020812573529789,0.06841567229219345,-0.05480187294505512
0.2799999713897705,car (1).jpg,0.06199725711312975,0.07086135546700424,0.06573824623087003,-0.05915733386961625,0.06803017175557277,0.06858424914887537,0.06938504509747566,0.07004160523910585,0.06196281307492412,0.07045091038357143,0.05990211634661154,0.06873630806640482,0.06752640813903905,0.07022609653783995,0.06841151486772476,-0.054424955478305274
0.2799999713897705,car (1).jpg,0.06202901894200074,0.07086388121412769,0.06573614516689123,-0.05915740092484962,0.06804049826151112,0.06858241630583004,0.069381871149763,0.07003925830593805,0.061926782062862167,0.07046901529658023,0.06000222981002686,0.06875260248811274,0.06752674341520588,0.0702206203604484,0.06842651288825427,-0.05474190321468153
0.2799999713897705,car (1).jpg,0.06205715978826997,0.070888982223151,0.06576714703645074,-0.059556178397676754,0.06803202695036256,0.0686100877654657,0.06940974377509877,0.07006529808822848,0.06203192466877993,0.07048370039268737,0.06001825601080132,0.0687667287906085,0.06755486190973066,0.07023883703217948,0.06844575774023029,-0.0548175862214072
0.28099989891052246,car (1).jpg,0.06196945154302735,0.07088178496143639,0.06576473304804957,-0.059684432707361304,0.06807369060202725,0.068605438602619,0.06940793328379789,0.07006422520449462,0.06200224155214328,0.07048188990138649,0.0599906069029101,0.06876534298245227,0.06754797757243843,0.07024210038686995,0.06844153326052824,-0.05458188707612599
0.28099989891052246,car (1).jpg,0.062066659279663476,0.07090552251404793,0.06578312853373629,-0.05969851430636815,0.06805598802041865,0.06862352116388334,0.0694237806706167,0.07007725627151207,0.06203983718631711,0.0705093378435776,0.06011412264277013,0.0687905781019423,0.06756773651453692,0.07024762126775042,0.06846967410679747,-0.0549765741797178
0.28099989891052246,car (1).jpg,0.06198476248797923,0.07091247390657353,0.0657970760222764,-0.0597138923065534,0.06808095491897523,0.06863690985881207,0.06943947159522433,0.07009386361764236,0.06209254259974272,0.07050381696269714,0.06002768844696146,0.06878659949142926,0.06757618547394102,0.07026619556739278,0.06846643310385145,-0.05472270306619442
0.28099989891052246,car (1).jpg,0.06200668954928989,0.07091951470607695,0.06579893121706619,-0.05971970376011178,0.06809521533193771,0.06863981558559126,0.06944087975512502,0.07009471298393166,0.06204788381432102,0.07052719688739739,0.060116044892793284,0.06880810186959527,0.06758092404376555,0.07026702258193762,0.06848509681047163,-0.05464880819902518
0.28099989891052246,car (1).jpg,0.06203878665432771,0.07094515215696719,0.06582599917960157,-0.059740155606288384,0.06808560408182193,0.06866721882429347,0.0694667407234598,0.07012057395226645,0.06214866783007,0.07053953505033672,0.060134954468602474,0.06882014945985668,0.0676055556661553,0.07028342876236782,0.06850145828741291,-0.05482038018946411
0.2820000648498535,car (1).jpg,0.06194367998167038,0.07094052534586494,0.0658240322260895,-0.05974659290869151,0.0681279829893092,0.06866554244345932,0.06946756773800465,0.07012153507727803,0.06211583311746515,0.07054438537888352,0.060103706729853955,0.06882589385818169,0.06760548861092193,0.07029498461425121,0.06850333583394716,-0.05467379744932621
0.2820000648498535,car (1).jpg,0.06204826379397676,0.07096842032294516,0.06584631691531144,-0.059762730868188244,0.06811399079728017,0.06868921294083749,0.0694877960667367,0.07014167399903226,0.06215255703360522,0.07057402379203126,0.06022780361506982,0.0688536547247952,0.0676287567768999,0.070304841733556,0.06853409183431766,-0.05514112772239777
0.2820000648498535,car (1).jpg,0.061971507903517235,0.07097836684922777,0.0658629913166751,-0.05977906999338507,0.06814204223657158,0.0687048144584673,0.06950809145070212,0.07016114236845283,0.06220646944123142,0.07057069338210742,0.06014715852107507,0.06885267124803916,0.06764138551251715,0.07032717112626685,0.06853420359303994,-0.054974517819227915
0.2820000648498535,car (1).jpg,0.061999134659663994,0.07098359715743031,0.06586352775854203,-0.05978284743819802,0.06815757669896802,0.06870501562416739,0.06950706327045718,0.07015899660098512,0.062145292716657245,0.07059221811201788,0.06021917584171007,0.06887334661166032,0.06764587821315267,0.07032962981815694,0.06855161560197062,-0.05491897373425647
0.28299999237060547,car (1).jpg,0.062047235613731815,0.07101294499790013,0.0658939484827457,-0.059804729796019765,0.06815294988786577,0.06873487755475968,0.06953663462837155,0.07018908204902197,0.062234967915411936,0.07060728318778076,0.06022887649880367,0.06888816581823419,0.06767328145185487,0.07034958992595552,0.06857016754986853,-0.0550628966168042
0.28299999237060547,car (1).jpg,0.06195624166205426,0.07100489836989622,0.06588860641582088,-0.05980703202569866,0.06819336184184097,0.06872893199073457,0.06953274542483633,0.07018604221177605,0.062175154647249535,0.07060616560055799,0.06016443641953902,0.06888812111474528,0.06766755940527432,0.07035761420221498,0.06856549603527737,-0.05466774012657882
0.28299999237060547,car (1).jpg,0.062054097599279594,0.07102910530914132,0.06590648781138513,-0.05982026425841621,0.06817831911782254,0.06874674633106545,0.06954787755583257,0.07020059319741645,0.062185637615399074,0.07063003726363626,0.06026099595558595,0.06891015993477821,0.0676837197165155,0.07036537025754097,0.06858831716636624,-0.05488383679197273
0.28299999237060547,car (1).jpg,0.061956889862643465,0.07103194398068714,0.0659165013929011,-0.0598313730754105,0.06819982149598855,0.06875595524978104,0.06955925459376032,0.07021266313942232,0.06221657242972522,0.07062187887691007,0.06015764148922461,0.06890340970795271,0.06769024642589645,0.07038392220543888,0.06858357859654171,-0.05467717256273896
0.28299999237060547,car (1).jpg,0.06195463233645348,0.07103370976849911,0.06591408740449993,-0.05983407763648959,0.06821490892349588,0.06875304952300185,0.06955612534953658,0.07020855041844254,0.0621663704116786,0.0706401179003856,0.06021834882716522,0.06892050879246102,0.06769234748987525,0.07038790081595192,0.06859904600370478,-0.05482614693953358
0.2839999198913574,car (1).jpg,0.06197982275245461,0.0710572238036661,0.06593898724782316,-0.05985269663962086,0.06820536472861347,0.06877759173841377,0.06957977349517029,0.0702315280117426,0.06222157922048321,0.07064943857782346,0.060195862972243185,0.0689290695105874,0.06771481099305283,0.07040618454291636,0.0686121888294445,-0.054795033311251795
0.28600001335144043,car (1).jpg,0.06187286965523597,0.07104457271630439,0.06592966657038529,-0.059851959032053835,0.06824179807207562,0.06876844987493155,0.06957208449507767,0.07022529187503956,0.06215984370229765,0.07064069904574144,0.060118749453872376,0.06892294513260665,0.06770294221674707,0.07041338180463097,0.06860105766070576,-0.05457625443652325
0.2869999408721924,car (1).jpg,0.06196887039767151,0.07106039775137875,0.06593900959956761,-0.059857345802467564,0.06821808287120854,0.06877920106401456,0.06957849944573634,0.07023454549724406,0.062124572649547176,0.07065965332503954,0.06016206713462676,0.06894091593514871,0.06771445336514155,0.07042102610123468,0.068618693187081,-0.054751022726419296
0.2869999408721924,car (1).jpg,0.06187222145464676,0.07106073302754558,0.06594622921302667,-0.05986595122408286,0.06823558428711704,0.06878644302921808,0.06958659077722916,0.07024467083748231,0.062136910812486505,0.07064539291207705,0.06002985656617362,0.0689296730076877,0.06771628620818688,0.07043644880490885,0.06860617621018603,-0.054408325780430526
0.2869999408721924,car (1).jpg,0.06187698237621574,0.07105447453909809,0.0659353662652214,-0.05986069856413586,0.06824258038313155,0.06877549067443497,0.06957510198057913,0.07023222091582071,0.062055662221391465,0.07065502651393729,0.06008334429065517,0.06893932896129239,0.06771116765870662,0.07043378894731867,0.06861297114050044,-0.054710968400355386
0.28800010681152344,car (1).jpg,0.06191008530975405,0.07106962902183879,0.06595123600378466,-0.059869773372384714,0.06822452017361166,0.06879153922695389,0.06959128464356477,0.07024791184042833,0.062094286035810235,0.07065799929594985,0.06006982148525971,0.0689429722956386,0.06772656801063633,0.0704419249823004,0.06862095071327098,-0.05470294412409593
0.7409999370574951,car (1).jpg,0.06181938193075442,0.07105141235010771,0.0659370649978,-0.059862620814159016,0.0682550079530487,0.06877660826165774,0.0695793711637701,0.0702361771745893,0.06202745431988887,0.0706460187609218,0.06000520259203942,0.0689330704728449,0.06771279933605186,0.07044091915379991,0.06860780788753126,-0.05445242577224085
0.7409999370574951,car (1).jpg,0.0619189142488139,0.07106433165840288,0.0659433681897364,-0.05986485598860455,0.06823013046146995,0.06878340319197215,0.06958417678882799,0.07023944052927977,0.06201279157552619,0.07066244729309645,0.06006785453174764,0.06894708501661838,0.06772102477801141,0.07043989097355496,0.06862318588771651,-0.054778358909888136
0.7420001029968262,car (1).jpg,0.06183576575944016,0.07106238705663527,0.06594853144270557,-0.05987017570378491,0.06824439087443243,0.06878735945074074,0.0695905246842533,0.07024701777065012,0.062027521375122234,0.07064651049929982,0.05994076251277477,0.06893340574901173,0.06772028717044438,0.07044880931959263,0.06861031128291026,-0.054357609672261435
0.7420001029968262,car (1).jpg,0.06184651694852316,0.07105275345477503,0.06593429338148754,-0.059861145599024966,0.06824877181634567,0.06877296492731153,0.06957507962883468,0.07023150565999814,0.06197389954017395,0.0706527689877473,0.060002408623982505,0.06893892662989219,0.06770908894647228,0.07043960040087704,0.0686121888294445,-0.05472674873194083
0.7420001029968262,car (1).jpg,0.06187253437906914,0.07106687975727079,0.06594922434678369,-0.05987026511076273,0.06822807410098006,0.06878773943039648,0.0695884236202745,0.07024451437527113,0.06201831245640665,0.07065556295580422,0.05997156321663418,0.06894100534212654,0.06772361758036823,0.07044594829630235,0.06861916257371456,-0.054810411311437046
0.7420001029968262,car (1).jpg,0.061761110932959426,0.07104866308553971,0.0659345168989321,-0.05986420778801534,0.06825831601122809,0.06877274140986697,0.06957494551836794,0.07023248913675417,0.061951503092229736,0.07064255424053123,0.05988459257895858,0.06892911421407631,0.06770779254529387,0.07044498717129077,0.06860344929736248,-0.05439634524540248
0.7420001029968262,car (1).jpg,0.06185085318694749,0.07106026364091202,0.06593898724782316,-0.059865772410127215,0.06823118099345934,0.0687774799796915,0.06957583958814616,0.07023284676466546,0.061936795644378144,0.0706567252465159,0.05995446413212587,0.06894145237701564,0.06771469923433056,0.07044250612765623,0.06861757559985823,-0.054951853150350234
0.7430000305175781,car (1).jpg,0.06177130332843105,0.07105791670774421,0.0659427646926361,-0.059870443924718374,0.0682417086650978,0.06878134683148227,0.06958203102136028,0.07024134042755847,0.061940126054301985,0.07063933558932967,0.059817291476403654,0.06892602967334148,0.06771378281280789,0.07045171504637182,0.06860315872468456,-0.054391092585455485
0.7430000305175781,car (1).jpg,0.061769671651085815,0.07104609263492735,0.06592640321569482,-0.0598591786455129,0.06824452498489916,0.06876534298245227,0.0695646190124296,0.07022330256978304,0.061879217550661274,0.07064385064170964,0.05988175390741276,0.06892929302803195,0.0677014222981241,0.0704402262497218,0.06860282344851773,-0.054676166734238474
0.7430000305175781,car (1).jpg,0.061803534543935605,0.07105903429496697,0.06593934487573444,-0.05986563829966048,0.06822156974334356,0.06877879873261436,0.06957715834106902,0.07023537251178891,0.06191672377785728,0.07064780690047823,0.05986411838103752,0.06893217640306669,0.06771639796690916,0.07044554596490216,0.06861035598639917,-0.05478175637504534
0.7430000305175781,car (1).jpg,0.061703912818898296,0.07104171169301411,0.06592559855289443,-0.05985913394202399,0.06825136461870249,0.06876541003768563,0.06956513310255207,0.07022589537213986,0.06185610584689449,0.0706342170398494,0.059792391633080436,0.06891992764710518,0.06769983532426778,0.0704430202177787,0.06859430743388026,-0.05437855325681606
0.7430000305175781,car (1).jpg,0.06181028477076111,0.0710523734751193,0.06592908542502945,-0.05985803870654568,0.06822295555149979,0.06876920983424303,0.06956558013744117,0.07022549304073966,0.06185905627716259,0.0706468234237222,0.05988857118947163,0.06893054472572145,0.06770379158303637,0.07043555473513063,0.0686064891346084,-0.05493649750190944
0.7439999580383301,car (1).jpg,0.061729058531410516,0.07104989243148475,0.06593366753264279,-0.05986246435194783,0.06823321500220478,0.06877312138952271,0.06957192803286648,0.07023224326756516,0.06187709413493802,0.07063263006599307,0.05976802823162415,0.06891878770813796,0.06770546796387052,0.07044554596490216,0.0685957379455254,-0.054380520210328125
0.7439999580383301,car (1).jpg,0.061740301458871535,0.07104019177439115,0.06591965298886932,-0.05985332248846561,0.06823994287728583,0.06875924095621597,0.06955748880594835,0.07021715584005783,0.06183037898902643,0.07063846387129591,0.05983213303472198,0.0689240180163405,0.06769435914687623,0.07043383365080758,0.0685972355124039,-0.054651579815337636
0.7439999580383301,car (1).jpg,0.06178089222680238,0.07105518979492066,0.06593485217509892,-0.05986208437229209,0.06821765818806388,0.06877406016278984,0.0695720174398443,0.0702296728169528,0.06188838176588795,0.07064128019109728,0.05982629922941914,0.06892654376346395,0.06770819487669406,0.07043723111596478,0.06860436571888515,-0.054790182982704994
0.7439999580383301,car (1).jpg,0.06167941530697528,0.07103607905341137,0.06591989885805832,-0.059854194206499366,0.06824579903433312,0.06875892803179359,0.06955963457341606,0.07021903338659208,0.061841823082187546,0.07062800325489083,0.0597558018274071,0.06891541259472521,0.06769346507709802,0.07043830399969864,0.06858939005010009,-0.054376183971903795
0.7439999580383301,car (1).jpg,0.06179430327347556,0.0710467184837721,0.06592347513717117,-0.05985285310183205,0.06821846285086428,0.06876290664230664,0.06956068510540546,0.07021948042148118,0.06183746449201876,0.07064163781900856,0.05985034970645305,0.06892710255707533,0.06769815894343363,0.07043258195311808,0.06860192937873952,-0.054950132066027176
0.7439999580383301,car (1).jpg,0.06172150364178462,0.07104542208259369,0.06592910777677391,-0.05985790459607895,0.06822914698471391,0.06876840517144264,0.0695682176432869,0.07022734823552945,0.06185328952709312,0.07062762327523509,0.05972301181829116,0.0689149655598361,0.0677005282283459,0.07044462954337949,0.06859090996872305,-0.05440754346937459
0.7450001239776611,car (1).jpg,0.06173576405474711,0.07103552025979999,0.06591498147427814,-0.05984820393898534,0.06823527136269467,0.06875510588349174,0.06955438191346906,0.07021290900861132,0.06180737904398192,0.07063347943228238,0.059785529647532656,0.06892024057152756,0.06768959822530725,0.0704332748571962,0.06859209461117918,-0.054675920865049465
0.7450001239776611,car (1).jpg,0.06178451320940414,0.07105145705359663,0.0659313653029639,-0.05985647408443381,0.06821401485371767,0.06877108738077728,0.0695701175415656,0.07022719177331826,0.061859927995196344,0.07063857563001819,0.05978070167073031,0.06892511325181881,0.06770549031561497,0.07043814753748745,0.06860139293687259,-0.05481628982022879
0.7450001239776611,car (1).jpg,0.06169014414431383,0.07103326273361,0.0659177530905906,-0.05984882978783009,0.06824331799069858,0.06875763163061518,0.06955755586118172,0.07021813931681387,0.061810441232972295,0.07062690801941252,0.05970367755933732,0.0689158149261254,0.06769225808289743,0.07044065093286644,0.06858746780007693,-0.054364516361298125
0.7450001239776611,car (1).jpg,0.061812631703928915,0.07104723257389457,0.0659248609453274,-0.05985034970645305,0.0682196474933204,0.06876574531385246,0.06956117684378348,0.07022287788663839,0.06180702141607063,0.07064163781900856,0.05979621378138229,0.06892911421407631,0.06769795777773353,0.07043535356943054,0.06860119177117249,-0.05494769572588155
0.7450001239776611,car (1).jpg,0.0617525725665775,0.0710452209168936,0.0659299124395743,-0.059853858930332536,0.06822903522599164,0.06877122149124401,0.0695675694426977,0.0702313268460425,0.06181750438422017,0.07062498576938936,0.05966605957341904,0.0689149655598361,0.06769811423994472,0.0704453224474576,0.06858766896577703,-0.05440810226298597
0.7450001239776611,car (1).jpg,0.06177785238955646,0.07103292745744318,0.0659129027620438,-0.059841476063904296,0.06823386320279398,0.06875479295906936,0.06955078328261176,0.07021391483711181,0.06177673480233369,0.07063131131307021,0.059737048713809096,0.0689208664203723,0.06768807830668429,0.07043385600255203,0.06858936769835564,-0.05465461965258356
0.7450001239776611,car (1).jpg,0.0618456452304894,0.07105002654195149,0.06593047123318568,-0.059850237947730776,0.06821336665312847,0.06877128854647738,0.06956692124210849,0.07022815289832984,0.06183969966646429,0.0706352675718388,0.059753007859350185,0.06892497914135208,0.06770325514116944,0.07043642645316439,0.06859772725078192,-0.05480685738406865
0.7460000514984131,car (1).jpg,0.061752594918321954,0.07102973115798607,0.06591410975624439,-0.05984082786331509,0.06824217805173136,0.06875441297941362,0.06955207968379017,0.07021570297666824,0.06179566672988734,0.07062082834492067,0.059683672748049824,0.06891268568190166,0.067687720678773,0.07043580060431964,0.06858154458779628,-0.05433776132318512
0.7460000514984131,car (1).jpg,0.06186576180049918,0.07104077291974699,0.06591806601501299,-0.05984035847668153,0.06821674176654122,0.06875841394167112,0.06955420309951342,0.07021581473539051,0.06179083875308499,0.07063618399336147,0.05978718367662235,0.06892616378380821,0.06769388976024267,0.0704290727292386,0.06859562618680312,-0.05491186587951968
0.7460000514984131,car (1).jpg,0.061792336319963496,0.07104012471915779,0.06592472683486067,-0.05984563348837298,0.0682267553480572,0.06876409128476277,0.06956216032053951,0.07022399547386116,0.06181354812545158,0.07062205769086571,0.05967716839041333,0.06891387032435779,0.06769585671375473,0.07044038271193298,0.06858453972155329,-0.05436154357928557
0.7460000514984131,car (1).jpg,0.061786770735594125,0.07102955234403042,0.0659101982009647,-0.059836290459190665,0.06823549488013922,0.06874956265086682,0.06954660350639862,0.07020765634866433,0.061763971956249705,0.07062672920545687,0.05974583294938003,0.06891735719649282,0.06768264683278165,0.07042746340363781,0.06858402563143082,-0.05457670147141236
0.7460000514984131,car (1).jpg,0.06182251117497816,0.07104215872790322,0.06592305045402652,-0.05984299598252726,0.06821005859494908,0.06876216903473961,0.06955768997164845,0.07021713348831338,0.06182304761684509,0.07063079722294774,0.059754192501806316,0.06892039703373874,0.06769630374864384,0.07042777632806019,0.06859171463152344,-0.05476161745329111
0.746999979019165,car (1).jpg,0.06169461449320489,0.07102528316083946,0.06591075699457609,-0.05983935264818104,0.06824034520868602,0.06875009909273375,0.06954772109362138,0.07021011504055441,0.06178035578493545,0.070619911923398,0.05967712368692442,0.06891105400455642,0.06768447967582698,0.07043251489788471,0.06857906354416174,-0.05432435027651194
0.746999979019165,car (1).jpg,0.06178536257569344,0.07103896242844611,0.0659173507591904,-0.05984306303776062,0.06821756878108606,0.06875718459572608,0.06955263847740155,0.07021456303770102,0.061795577322909516,0.07063531227532771,0.059789016519667684,0.06892450975471852,0.06769026877764091,0.07042645757513732,0.06859386039899115,-0.05491989015577914
0.746999979019165,car (1).jpg,0.06170174469968613,0.07103590023945573,0.06592195521854821,-0.05984699694478476,0.06822197207474376,0.06876040324692764,0.06955827111700429,0.07022024038079266,0.061819538392965605,0.07061834730128613,0.05968382921026101,0.0689096681964002,0.06768953117007388,0.07043490653454143,0.06858040464882906,-0.05442073099860322
0.746999979019165,car (1).jpg,0.06169890602814031,0.07102450084978353,0.0659065995701074,-0.05983640221791294,0.06822941520564738,0.06874500289499794,0.0695425578406522,0.07020419182827375,0.06177195152902026,0.07062514223160055,0.059755243033795716,0.06891568081565867,0.06767974110600246,0.07042674814781524,0.06858310920990815,-0.054667449553900904
0.746999979019165,car (1).jpg,0.06176229557541556,0.07104209167266985,0.06592389982031582,-0.059846102875006545,0.06820856102807057,0.06876214668299516,0.0695596122216716,0.0702199721598592,0.061827875593647434,0.07063090898167002,0.059775963100905785,0.06892104523432795,0.06769561084456573,0.07042920683970533,0.06859368158503551,-0.05488591550420707
0.747999906539917,car (1).jpg,0.06166984876034841,0.07102427733233897,0.06591122638120965,-0.05983865974410293,0.0682377077028403,0.0687492720781889,0.06954957628841117,0.07021089735161035,0.061785250816971164,0.07061640269951852,0.05970070477732477,0.06890850590568852,0.06768123867288096,0.07042938565366097,0.06857729775634977,-0.05439274661454518
0.747999906539917,car (1).jpg,0.06180333337823551,0.0710336650650102,0.06591346155565518,-0.059834524671378696,0.06821222671416124,0.068752222508457,0.06954883868084415,0.07020890804635382,0.06178370854660375,0.07063222773459288,0.05979451504880369,0.06892182754538388,0.06768711718167271,0.07042444591813635,0.06859162522454562,-0.054982855019909745
0.747999906539917,car (1).jpg,0.061757311136402024,0.07103522968712207,0.06592204462552603,-0.05984125254645974,0.06822132387415455,0.06876071617135002,0.06955885226236012,0.07022010627032593,0.061822399416255884,0.07061868257745296,0.05969377573654362,0.0689103163969894,0.06769069346078556,0.07043410187174104,0.06858161164302964,-0.054477325615564065
0.747999906539917,car (1).jpg,0.061782814476825536,0.07102494788467263,0.06590776186081908,-0.059803343987863536,0.06823109158648152,0.06874775215956594,0.06954532945696466,0.0702073210724975,0.06178297093903672,0.0706258127839342,0.05975584653089601,0.0689168207546259,0.06768164100428116,0.07042773162457128,0.06858380211398626,-0.05469610449029261
0.747999906539917,car (1).jpg,0.0618747024982813,0.07104260576279232,0.0659231622127488,-0.059795163249392894,0.06820809164143701,0.06876324191847347,0.0695595675181827,0.07022070976742623,0.061839297335064096,0.07063088662992556,0.05977408555437154,0.06892084406862785,0.06769646021085503,0.07042788808678246,0.06859332395712422,-0.05492885320530572
0.747999906539917,car (1).jpg,0.06179320803799725,0.07102637839631777,0.06591098051202064,-0.05972766098113787,0.06823728301969564,0.06875103786600087,0.06954993391632246,0.07021174671789965,0.0618039368753358,0.07061944253676444,0.05970741030066136,0.0689109645975786,0.06768539609734965,0.07043041383390591,0.06857928706160629,-0.05442678832135061
0.747999906539917,car (1).jpg,0.06192582093785059,0.07103748721331206,0.06591104756725401,-0.059519365074558864,0.06821446188860678,0.06875499412476946,0.06955060446865612,0.07021270784291123,0.06180261812241294,0.07063307710088218,0.05980383572624155,0.0689223192837619,0.06768944176309606,0.07042511647047,0.06859204990769027,-0.055007620752766224
0.749000072479248,car (1).jpg,0.061862833721975534,0.07103793424820116,0.06591989885805832,-0.059697329663912016,0.06822098859798773,0.06876196786903951,0.06955929929724923,0.07022263201744938,0.06183395526813928,0.07062105186236523,0.0596985366581126,0.0689115680946789,0.06769371094628703,0.0704339230577854,0.06858346683781943,-0.054519525709095684
0.749000072479248,car (1).jpg,0.06187718354191584,0.07102928412309696,0.06590476672706207,-0.05935955010170342,0.06823261150510448,0.0687492720781889,0.06954541886394248,0.07020908686030947,0.06179179987809657,0.07062614806010103,0.05975260552794999,0.06891610549880332,0.06768228920487036,0.07042674814781524,0.06858371270700844,-0.05469719972577092
0.749000072479248,car (1).jpg,0.061932168833275895,0.07104387981222628,0.06591869186385774,-0.05943798237299709,0.06820851632458166,0.06876304075277337,0.06955813700653755,0.07022070976742623,0.06185223899510372,0.07063247360378189,0.059779494676529724,0.06892140286223923,0.06769768955680007,0.07042851393562721,0.06859450859958036,-0.0549235111383809
0.749000072479248,car (1).jpg,0.061819448985987784,0.07102872532948558,0.06590876768931957,-0.05934734604923082,0.06823837825517395,0.06875271424683502,0.06955058211691166,0.07021413835455637,0.061822019436600144,0.0706209624553874,0.05971002545476263,0.0689118139638679,0.0676864242775946,0.07043157612461759,0.06858120931162945,-0.05443943940871231
0.75,car (1).jpg,0.06192257993490457,0.07104218107964767,0.06591386388705538,-0.05911254097372782,0.06821859696133101,0.06875890568004914,0.06955319727101293,0.07021659704644645,0.06181167057891734,0.07063895560967393,0.059795967912193285,0.06892779546115345,0.06769460501606524,0.07043168788333987,0.06859786136124865,-0.0547773754331321
0.75,car (1).jpg,0.0618449970299002,0.07104452801281548,0.06592419039299374,-0.05931942872040614,0.06822639772014591,0.06876858398539828,0.06956524486127434,0.07022929283729706,0.06185769282075081,0.07062605865312321,0.05970072712906922,0.06891655253369243,0.06769806953645581,0.07043960040087704,0.06858889831172207,-0.054413332571188515
0.75,car (1).jpg,0.061841688971720814,0.0710323686638318,0.06590727012244106,-0.05892766969533798,0.06823533841792803,0.06875258013636829,0.06954774344536584,0.07021192553185529,0.061811625875428426,0.07062891967641349,0.05974388834761242,0.06891914533604925,0.06768414439966015,0.07043106203449512,0.06858673019250991,-0.05467133875743613
0.75,car (1).jpg,0.06188923113217725,0.07104723257389457,0.06592083763132545,-0.05902876663550933,0.06821093031298284,0.0687659241278081,0.06955932164899369,0.07022348138373868,0.06186240903883088,0.07063596047591691,0.05975984749315351,0.06892497914135208,0.0676999247312456,0.07043296193277382,0.06859817428567103,-0.0549273109349383
0.750999927520752,car (1).jpg,0.06177651128488914,0.07103328508535446,0.06591261218936588,-0.05892208175922415,0.06824166396160888,0.06875720694747053,0.0695545607274247,0.07021941336624782,0.06184356651825506,0.07062587983916757,0.05969460275108847,0.06891715603079272,0.06769102873695239,0.07043758874387607,0.06858614904715407,-0.054431661001641866
0.750999927520752,car (1).jpg,0.06189162276883397,0.07104531032387142,0.065916054358012,-0.058673463305647766,0.06822098859798773,0.06876174435159496,0.06955563361115856,0.07022006156683702,0.061841398399042895,0.070641168432375,0.05979426917961468,0.06893074589142155,0.06769576730677691,0.07043430303744114,0.06860061062581665,-0.05500507265389832
0.750999927520752,car (1).jpg,0.06182005248308808,0.07104832780937288,0.06592658202965046,-0.05891133057014115,0.0682276047143465,0.06877122149124401,0.06956739062874205,0.07023166212220933,0.06187617771341535,0.07063173599621486,0.05970041420464685,0.06892301218784001,0.06770289751325816,0.07044398134279029,0.06859491093098055,-0.054551913386811424
0.750999927520752,car (1).jpg,0.06181967250343234,0.07103918594589066,0.06591292511378825,-0.0584845016580226,0.06824012169124147,0.06875881627307132,0.06955420309951342,0.07021840753774733,0.06182306996858954,0.07063665337999503,0.059740714399899766,0.06892784016464236,0.06769230278638634,0.07043854986888765,0.06859500033795837,-0.054592347692531074
0.750999927520752,car (1).jpg,0.06188862763507696,0.07105590505074323,0.06592848192792916,-0.05857985419986894,0.06821837344388645,0.06877455190116785,0.06956917876829848,0.07023248913675417,0.06187687061749347,0.07064380593822073,0.05976769295545732,0.0689337186734341,0.06770716669644912,0.07043928747645467,0.06860655618984177,-0.054765081973681684
0.752000093460083,car (1).jpg,0.06178214392449188,0.07104077291974699,0.0659189600847912,-0.05848432284406696,0.06824899533379022,0.06876489594756316,0.06956204856181723,0.0702267223866847,0.06185809515215101,0.07063225008633733,0.059700436556391304,0.06892410742331832,0.06769630374864384,0.0704431766799899,0.06859350277107987,-0.05441932283870254
0.752000093460083,car (1).jpg,0.061905972588774276,0.07105212760593028,0.06592155288714802,-0.05825586566398926,0.06822912463296946,0.068768226357487,0.06956242854147297,0.0702258730203954,0.06185813985563992,0.07064778454873377,0.0597973090168606,0.06893760787696933,0.06770160111207975,0.07044076269158872,0.06860800905323136,-0.05500536322657624
1.2100000381469727,car (1).jpg,0.061840973715898244,0.07105478746352047,0.06593239348320884,-0.05852165025730732,0.06823462316210546,0.06877817288376961,0.06957409615207864,0.0702384794042682,0.06189542256539137,0.07063748039453988,0.05970508571923801,0.0689286224756983,0.06770794900750506,0.07044903283703718,0.06860125882640586,-0.05456671024164084
1.2100000381469727,car (1).jpg,0.06184993676542482,0.07104399157094855,0.06591797660803517,-0.05813594855498654,0.0682457543308442,0.06876429245046287,0.0695604615879609,0.07022500130236164,0.061840727846709236,0.07064197309517539,0.05974708464706953,0.06893315987982272,0.06769715311493314,0.07044337784568999,0.06860108001245022,-0.054603344750803084
1.2109999656677246,car (1).jpg,0.06182999900937069,0.07104611498667181,0.06592477153834958,-0.0581016609789921,0.06825380095884812,0.06877133324996629,0.06956904465783174,0.07023400905537713,0.06187186382673548,0.07063745804279542,0.05970839377741739,0.06892913656582077,0.06770139994637965,0.07044719999399185,0.06859942598336052,-0.0544174899956572
1.2109999656677246,car (1).jpg,0.061958655650455434,0.07105673206528808,0.06592693965756175,-0.057844437103800425,0.06823393025802735,0.06877446249419003,0.0695682176432869,0.07023286911640991,0.06186095617544129,0.07065281369123622,0.059802159345407405,0.06894248055726059,0.06770506563247032,0.07044498717129077,0.06861321700968945,-0.0550150862354143
1.2109999656677246,car (1).jpg,0.06188851587635468,0.07105825198391104,0.0659364615006997,-0.05808858520848575,0.06823757359237356,0.0687829785088275,0.06957861120445862,0.07024402263689311,0.061898216533448285,0.07064190603994203,0.05971125480070767,0.06893300341761154,0.06771040769939514,0.07045216208126093,0.06860590798925256,-0.054591811250664146
1.2109999656677246,car (1).jpg,0.06189296387350129,0.07104843956809516,0.06592325161972662,-0.0577396744775384,0.06825114110125793,0.06876999214529897,0.06956475312289633,0.07023081275592002,0.06184718750085682,0.07064615287138853,0.05975287374888345,0.06893720554556913,0.06769898595797848,0.07044780349109214,0.06860505862296326,-0.05460032726530162
1.2119998931884766,car (1).jpg,0.06196001910686721,0.07106600803923703,0.06593938957922335,-0.05784023497584283,0.06822905757773609,0.06878617480828461,0.06957968408819247,0.0702445814305045,0.06189542256539137,0.07065614410116006,0.05978318271436485,0.06894578861543997,0.06771671089133154,0.07045053040391569,0.06861958725685921,-0.05477858242733269
1.2119998931884766,car (1).jpg,0.0618481486258684,0.0710515688123189,0.06593111943377489,-0.05778296980654833,0.06825927713623967,0.06877676472386893,0.0695728668061336,0.07023776414844562,0.06188138566987344,0.07064244248180895,0.0597166415711214,0.06893421041181212,0.06770423861792547,0.07045140212194945,0.06860456688458524,-0.05444082521686854
1.2119998931884766,car (1).jpg,0.06197094910990585,0.07106191767000171,0.06593228172448656,-0.05755820066430577,0.06823895940052979,0.06877823993900298,0.06957143629448846,0.07023695948564523,0.06187047801857925,0.07065721698489391,0.05980732259837658,0.06894692855440719,0.06770794900750506,0.07044961398239302,0.06861757559985823,-0.05479668734034149
1.2119998931884766,car (1).jpg,0.06189077340254467,0.07106401873398051,0.06594359170718095,-0.057797476088699826,0.06824372032209877,0.06878845468621905,0.06958399797487234,0.0702486270962509,0.06191971891161429,0.07064773984524486,0.05974627998426914,0.0689389713333811,0.06771536978666422,0.07045699005806327,0.06861232293991124,-0.05448458993251204
1.2139999866485596,car (1).jpg,0.06188744299262083,0.07105411691118681,0.0659297112738742,-0.05745750605553461,0.06825818190076136,0.06877546832269052,0.06957049752122134,0.07023613247110039,0.061869449838334305,0.07065332778135869,0.05978521672311028,0.06894408988286137,0.06770560207433725,0.07045511251152903,0.06861283703003371,-0.054602249515324774
1.2139999866485596,car (1).jpg,0.06195814156033296,0.07107275826606253,0.06594687741361588,-0.05754807532406751,0.06823723831620673,0.06879270151766556,0.06958647901850688,0.07025104108465208,0.06192152940291517,0.07066296138321893,0.05982189593576145,0.06895220356609864,0.06772292467629011,0.07045678889236318,0.06862682922206273,-0.05479800609326435
1.2139999866485596,car (1).jpg,0.06184345475953278,0.07105688852749927,0.06593820493676722,-0.05751752048939711,0.06826549092119824,0.06878329143324988,0.06957916999807,0.07024487200318241,0.06190968297835386,0.0706498185574792,0.05974882808313704,0.06894105004561545,0.06771119001045107,0.07045848762494178,0.06861241234688906,-0.05445638203100944
1.2149999141693115,car (1).jpg,0.061961270804556705,0.07106636566714832,0.06593959074492345,-0.0573077717194285,0.06824664840062242,0.06878532544199531,0.06957921470155891,0.07024496141016023,0.06188838176588795,0.07066403426695278,0.05982949552887625,0.06895341056029923,0.06771469923433056,0.07045710181678555,0.0686247952133173,-0.05479930249444276
1.2149999141693115,car (1).jpg,0.06190324567595073,0.07107067955382819,0.06595130305901803,-0.05756217927481881,0.06825109639776902,0.06879638955550069,0.0695909717191424,0.0702574783870552,0.06193357699317658,0.07065614410116006,0.059739194481276806,0.06894654857475145,0.06772310349024575,0.07046501433432273,0.06862077189931534,-0.05450003498793066
1.2149999141693115,car (1).jpg,0.06190896772253129,0.07106113535894577,0.06593786966060039,-0.057241476445374063,0.06826672026714328,0.06878331378499433,0.0695781194660806,0.0702441790991043,0.061896540152614136,0.07066112854017359,0.05977614191486143,0.06895184593818736,0.06771355929536334,0.07046304738081066,0.06862157656211573,-0.05460942442529493
1.2160000801086426,car (1).jpg,0.061991132735148995,0.07108071548708862,0.06595514755906434,-0.05732518372835919,0.06824658134538905,0.06880001053810245,0.06959403390813278,0.07025899830567817,0.06195152544397419,0.07067006923795571,0.05981892315374889,0.06895902084815751,0.06772927257171542,0.07046436613373352,0.0686344958704109,-0.05481434521846118
1.2160000801086426,car (1).jpg,0.06188172094604027,0.07106605274272594,0.06594705622757152,-0.05729959098095786,0.06827467748816937,0.06879113689555369,0.06958799893712984,0.0702534327213088,0.06194725626078323,0.07065875925526133,0.059759668679197867,0.06894983428118638,0.06772086831580022,0.07046830004075766,0.06862222476270494,-0.05444929652801711
1.2160000801086426,car (1).jpg,0.06200134748236507,0.07107769800158716,0.06595009606481744,-0.05708689178072116,0.06825891950832838,0.06879569665142257,0.06958931769005271,0.07025595846843224,0.06192456924016109,0.0706744278281245,0.05984813688375198,0.06896360295577085,0.0677253833681802,0.07046879177913568,0.06863572521635594,-0.054804510450900845
1.2170000076293945,car (1).jpg,0.06194689863287194,0.07108100605976654,0.06596078019866708,-0.05734494267045768,0.0682617134763853,0.06880553141898291,0.06960073943146937,0.07026769313427128,0.06197528534833018,0.0706655765373202,0.05977106806887007,0.06895573514172258,0.06773291590606163,0.0704760784478281,0.0686308972395536,-0.054508372188612486
1.2179999351501465,car (1).jpg,0.06194399290609275,0.07107345117014065,0.0659499172508618,-0.057032912317861596,0.06827977368590518,0.0687953837270002,0.0695903235185532,0.07025651726204363,0.06192148469942626,0.0706719244327455,0.05980260638029651,0.06896203833365898,0.0677243328361908,0.0704751843780499,0.06863266302736556,-0.05461633111433162
1.2179999351501465,car (1).jpg,0.06202481681404314,0.0710911761034937,0.06596504938185804,-0.05711666430433563,0.0682567066856273,0.06881064996846317,0.06960398043441539,0.07027044239883928,0.06196849041801577,0.07068131216541673,0.05984149841564875,0.06896934735409586,0.0677393308567203,0.07047565376468345,0.06864540352170509,-0.05483459589893769
1.2179999351501465,car (1).jpg,0.06191547208016778,0.07107776505682052,0.06595807563758799,-0.05709236795811271,0.06828699329936425,0.06880340800325965,0.0695989736436574,0.07026590499471486,0.06195849918824425,0.07066939868562205,0.05977493492066084,0.06895933377257989,0.06772969725486007,0.0704791853403074,0.06863246186166547,-0.0544682061038263
1.2190001010894775,car (1).jpg,0.06203985953806156,0.07108775628659204,0.06595934968702194,-0.056872672661861495,0.06826958129043356,0.0688052855497939,0.06959767724247899,0.07026454153830308,0.06193909787405704,0.07068584956954116,0.059864967747326824,0.0689741306274093,0.06773430171421786,0.07047880536065165,0.06864674462637241,-0.05481159595389318
1.2190001010894775,car (1).jpg,0.061986327110091104,0.07109365714712824,0.06597291719590631,-0.05713018710973109,0.06827478924689165,0.06881798134064451,0.06961260820777514,0.07027996424197724,0.0619947313660063,0.07067711003745913,0.0597945597522926,0.06896675455173905,0.06774185660384376,0.07048627084329973,0.06864225192573689,-0.05452848875862226
1.2200000286102295,car (1).jpg,0.06198295199667835,0.07108277184757851,0.06595854502422155,-0.05683281950149768,0.06828998843312126,0.06880396679687104,0.06959810192562364,0.07026550266331466,0.0619387178944013,0.07068120040669446,0.0598261204154635,0.06897080021748546,0.06773039015893818,0.0704832310060538,0.0686410002280474,-0.05462106968415614
1.2200000286102295,car (1).jpg,0.062065519340696255,0.07110105557454295,0.06597401243138462,-0.05692240529327456,0.06826723435726575,0.06881994829415658,0.06961301053917533,0.07027960661406596,0.0619928314677276,0.0706896270143541,0.05986711351479453,0.06897739398209977,0.06774547758644552,0.07048345452349836,0.06865358426017573,-0.05484876690492235
1.2200000286102295,car (1).jpg,0.06195456528122011,0.07108634812669136,0.06596556347198052,-0.05691938780777309,0.06829575518319073,0.06881042645101862,0.0696065285332833,0.0702734822360852,0.06198436015657904,0.07067874171480437,0.059806249714642726,0.06896860974652884,0.06773805680728635,0.07048826014855625,0.06864222957399244,-0.05448698156916876
1.2200000286102295,car (1).jpg,0.062069944986098406,0.07109864158614178,0.06596913975109336,-0.05670785089824806,0.0682815171219727,0.06881496385514305,0.06960865194900655,0.07027531507913054,0.06196276837143521,0.0706942314737119,0.05990643023329142,0.06898282545600241,0.06774201306605494,0.07048765665145595,0.06865608765555473,-0.05482424704125488
1.2200000286102295,car (1).jpg,0.06201688194476151,0.07110407306004442,0.06598205905938853,-0.0569688969217416,0.06828437814526298,0.06882701144540446,0.06962239827184656,0.07029011193395995,0.0620193853401405,0.07068864353759807,0.059841721933093305,0.06897893625246719,0.0677534348074716,0.07049892193066143,0.06865519358577651,-0.05455059463388856
1.2200000286102295,car (1).jpg,0.062016233744172304,0.0710966299291408,0.06597171020170572,-0.056663370926782,0.06830380181119464,0.06881675199469947,0.0696120270624193,0.07027900311696567,0.06197063618548348,0.07069204100275528,0.059882200942301865,0.06898244547634667,0.06774194601082158,0.07049556916899313,0.06865421010902048,-0.05464400257396729
1.2209999561309814,car (1).jpg,0.062112055672652204,0.07111256672293743,0.0659852777105901,-0.05674897810804583,0.06827892431961588,0.0688299395239281,0.06962394054221398,0.07028970960255976,0.06201759720058408,0.07070189812206007,0.05992647974806783,0.06899067091830623,0.06775736871449574,0.07049639618353798,0.06866791172837158,-0.05484496710836495
1.2209999561309814,car (1).jpg,0.062004700244033366,0.07110045207744266,0.0659794215535428,-0.05675096741330235,0.06830894271241936,0.06882356927675834,0.06962027485612331,0.07028716150369185,0.06200577312776722,0.07069020815970994,0.05984364418311646,0.06898070204027916,0.06774811509229124,0.07050059831149558,0.06865508182705424,-0.05448702627265767
1.2209999561309814,car (1).jpg,0.06212797011470438,0.07111135972873685,0.06598078500995458,-0.05654381144569057,0.0682937211744453,0.06882656441051535,0.06961958195204519,0.07028671446880275,0.06199021631362633,0.07070641317444004,0.05994074016103031,0.06899520832243065,0.06775247368246003,0.07049979364869519,0.06866916342606108,-0.05483229366925879
1.2209999561309814,car (1).jpg,0.06204815203525448,0.07111399723458257,0.06599345844906074,-0.05681525103035581,0.06829660454948003,0.06883876846298795,0.06963424469640787,0.07030108664048751,0.062045894509064496,0.07070022174122592,0.059870108648551544,0.06899011212469484,0.06776304605758739,0.07051045543080037,0.06866753174871584,-0.0545579260060699
1.2209999561309814,car (1).jpg,0.06202919775595638,0.0711065317519345,0.06598281901870001,-0.05652092325936833,0.0683175704857791,0.06882924661984999,0.06962458874280318,0.07029156479734955,0.06199810647941905,0.07070350744766085,0.059900350558799574,0.06899304020321849,0.06775146785395954,0.070507639110999,0.068666704734171,-0.054639532225076226
1.2220001220703125,car (1).jpg,0.062105104280126604,0.07112278147015351,0.0659964759345622,-0.05661095608603431,0.06829217890407788,0.0688435964397903,0.06963685985050914,0.07030278537306611,0.06205011898876655,0.07071407982278821,0.059940114312185565,0.06900169032832269,0.06776724818554498,0.07050942725055542,0.06868154629248932,-0.054883479164061444
1.2220001220703125,car (1).jpg,0.0619785263512762,0.07111127032175903,0.06599155855078204,-0.05661670048435932,0.06832295725619283,0.06883843318682112,0.06963469173129698,0.07030072901257622,0.062047392075943,0.0707032839302163,0.05986373840138178,0.06899234729914037,0.06775991681336364,0.07051539516632499,0.06867023630979494,-0.05450367832227687
1.2220001220703125,car (1).jpg,0.06208226079729328,0.0711212391997861,0.06599238556532688,-0.05639950858348711,0.06830688635192947,0.06884116009964467,0.06963417764117451,0.07030005846024256,0.06202626967743274,0.07071814784027908,0.05994098603021932,0.06900513249696881,0.06776217433955363,0.07051391995119094,0.06868286504541218,-0.05485015271307858
1.2220001220703125,car (1).jpg,0.06202814722396698,0.07112479312715449,0.06600255560905405,-0.056672177514097394,0.06830536643330651,0.06885057018406036,0.0696444817953684,0.07031058613188101,0.06207955623621419,0.07070755311340726,0.059863671346148416,0.0689955883020864,0.06776796344136755,0.07051982081172714,0.0686768077226648,-0.05458765382619546
1.2220001220703125,car (1).jpg,0.06200163805504299,0.07111500306308306,0.06598970335599225,-0.05638346003096819,0.0683242760091157,0.06883847789031003,0.06963221068766244,0.07029844913464178,0.062030427101901424,0.07071414687802158,0.05988964407320548,0.0690021373632118,0.0677601403308082,0.07052022314312734,0.06867886408315468,-0.05465307738221614
1.2220001220703125,car (1).jpg,0.0620762481780348,0.07113556666798194,0.06600720477190075,-0.0564807795263266,0.06830445001178384,0.06885667221029666,0.06964904155123729,0.07031458709413851,0.06208431715778317,0.07072521099152695,0.05993799089646231,0.06901134628192739,0.06777605477286038,0.07052183246872812,0.06869372799321746,-0.054884909675706584
1.2230000495910645,car (1).jpg,0.0619418694903695,0.07112121684804164,0.06600020867588624,-0.05650154429692558,0.06833261320979753,0.06884927378288196,0.06964497353374642,0.07031076494583666,0.0620783492420136,0.07071325280824337,0.0598633807734705,0.06900160092134487,0.06776747170298954,0.07052692866646393,0.06868132277504477,-0.05451570356079383
1.2230000495910645,car (1).jpg,0.062037467901404846,0.07113205744410246,0.06600248855382068,-0.05629190728567925,0.06831893394219088,0.06885267124803916,0.06964555467910226,0.070310094393503,0.062054187006257415,0.07072892138110654,0.059947736257044824,0.06901588368605181,0.06777071270593556,0.07052578872749671,0.06869489028392914,-0.05485911576260516
1.2230000495910645,car (1).jpg,0.06197434657506306,0.07113677366218253,0.06601417851617081,-0.05657083470473703,0.06831810692764603,0.06886304245746643,0.06965735640017466,0.07032151613491966,0.06210483605919314,0.07072049477344688,0.05987473545965379,0.06900882053480394,0.06777873698219501,0.0705329412857224,0.06869111283911619,-0.054609245611339285
1.2249999046325684,car (1).jpg,0.06194663041193848,0.07112684948764438,0.06600157213229801,-0.056276663395960734,0.06833730707613314,0.06885110662592729,0.06964490647851306,0.07031036261443646,0.0620534941021793,0.07072597095083843,0.05990513383211301,0.06901416260172875,0.06776932689777933,0.07053213662292201,0.06869109048737174,-0.05466423090269934
1.2249999046325684,car (1).jpg,0.06202497327625433,0.0711467425402096,0.06601829123715058,-0.056353955728287185,0.0683156258840115,0.06886809395171332,0.06965990449904257,0.07032498065531023,0.06210210914636959,0.07073596218060996,0.05995804041123872,0.06902243274717722,0.06778466019447567,0.07053244954734439,0.06870494856893403,-0.05489664434154562
1.2249999046325684,car (1).jpg,0.061904452670151315,0.07113402439761453,0.06601283741150349,-0.056369669004639265,0.06834461609657003,0.0688616566493102,0.06965621646120744,0.0703225443151646,0.06209484482942162,0.07072592624734952,0.05988103865159019,0.06901440847091776,0.06777864757521719,0.0705389986084698,0.0686945103042734,-0.054512864889248
1.2249999046325684,car (1).jpg,0.06200420850565535,0.07114312155760784,0.06601395499872625,-0.05615596397590208,0.06833046744232982,0.06886344478886662,0.06965541179840705,0.07032066676863036,0.06207401300358927,0.07074172893067943,0.05996943980091093,0.06902866888388025,0.06778168741246311,0.07053864098055851,0.06870807781315777,-0.054862043841128805
1.2249999046325684,car (1).jpg,0.061943702333414834,0.07115101172340056,0.06602915418495586,-0.05643793123220578,0.06833297083770881,0.0688776604983402,0.06967085685382567,0.07033622358277125,0.062129244164138335,0.07073446461373145,0.05990419505884589,0.06902270096811068,0.06779136571781226,0.07054749227136281,0.0687056638247566,-0.05461250896602976
1.2249999046325684,car (1).jpg,0.06191862367613598,0.07113746656626065,0.06601341855685933,-0.056159026164892455,0.06834884057627208,0.06886192487024366,0.06965507652224022,0.07032035384420798,0.062078617462947065,0.07073493400036501,0.059931106559170076,0.0690235950378889,0.06777741822927215,0.07054261959107155,0.06870148404854345,-0.05466675664982279
1.2249999046325684,car (1).jpg,0.06200367206378842,0.07115568323799172,0.06602839422564438,-0.05623991712807621,0.06832575122424975,0.06887710170472881,0.06966750409215737,0.07033448014670374,0.06211288268719705,0.07074593105863702,0.0599807050801164,0.06903260279090438,0.06779281858120186,0.07054413950969451,0.06871594562720604,-0.05490806608296228
1.2260000705718994,car (1).jpg,0.061887353585643005,0.0711418922116628,0.06602229219940808,-0.056266605110955846,0.06835331092516314,0.06886994914650311,0.0696634360746665,0.07033106032980208,0.06211402262616427,0.07073401757884235,0.05991865663750847,0.06902294683729969,0.06778568837472061,0.07054818517544093,0.06870414390613364,-0.05451230609563662
1.2260000705718994,car (1).jpg,0.061988316415347626,0.07115311278737936,0.06602551085060965,-0.056046731000748994,0.0683424256256134,0.06887408421922735,0.06966495599328947,0.07033177558562465,0.06209336961428757,0.07075093784939501,0.06001657962996717,0.06903836954097385,0.06779006931663385,0.07054901218998577,0.06871878429875186,-0.05486700592839788
1.2260000705718994,car (1).jpg,0.06193547689145528,0.07115735961882587,0.06603675377807067,-0.056323624411061333,0.06834119627966836,0.06888474600133253,0.0696773388597177,0.07034346554797477,0.062148913699259005,0.07074266770394655,0.05995403944898122,0.0690309934653036,0.0677982947585934,0.070555896527278,0.0687151633161501,-0.05462650115805878
1.2260000705718994,car (1).jpg,0.06190684430680803,0.07114696605765415,0.0660246838360648,-0.05604994965195056,0.06836142460840042,0.06887278781804894,0.06966538067643412,0.0703317979373691,0.06210132683531366,0.07074711570109316,0.059973597225379614,0.06903608966303941,0.06778875056371099,0.07055598593425583,0.06871511861266119,-0.05467831250170618
1.2260000705718994,car (1).jpg,0.061997704148018855,0.07116826727012006,0.06604267699035132,-0.05613352282446895,0.06834063748605698,0.0688907139171021,0.06968147393244194,0.07034697477185425,0.062140621202066086,0.07076019147159951,0.06001633376077816,0.06904742199747825,0.06780607316566385,0.07055929399243521,0.06873183771751376,-0.05491537510339917
1.2260000705718994,car (1).jpg,0.06187738470761594,0.07115505738914697,0.06603664201934839,-0.05617637111858977,0.06836837600092602,0.06888416485597669,0.06967812117077364,0.07034527603927565,0.062136910812486505,0.07074682512841524,0.059936895660984,0.06903646964269515,0.06779746774404856,0.07056289262329252,0.0687183149121183,-0.05453720593895983
1.2269999980926514,car (1).jpg,0.061985701261246355,0.07116437806658484,0.06603724551644868,-0.05596284490380823,0.06835570256181986,0.06888581888506638,0.06967664595563959,0.07034371141716378,0.062116771890732274,0.07076256075651177,0.060019597115468636,0.06905075240740209,0.06780055228478339,0.07056266910584796,0.06873188242100267,-0.05487462787325714
1.252000093460083,car (1).jpg,0.061935119263543996,0.07117193295621073,0.06605170709511127,-0.0562474720177021,0.06835679779729817,0.06889869348987264,0.06969126399651336,0.07035777066442617,0.06217808272577318,0.07075645873027547,0.05995160310883559,0.06904570091315519,0.06781116936339966,0.07057109571350761,0.06873058601982426,-0.054641298012888195
1.252000093460083,car (1).jpg,0.06190612905098546,0.07116142763631673,0.06603954774612758,-0.05598307323254028,0.06837780843708616,0.0688863106234444,0.06967892583357403,0.07034460548694199,0.06212437148384708,0.07075920799484348,0.05996729403344322,0.06904891956435676,0.06779988173244973,0.07056856996638416,0.0687288649355012,-0.0546920588245462
1.252000093460083,car (1).jpg,0.06199131154910464,0.07117906316269197,0.06605389756606789,-0.05605893505322159,0.06835366855307443,0.0689008616090848,0.06969121929302445,0.07035783771965953,0.062159776647064284,0.07077020505311549,0.06002172053119189,0.06905783791039442,0.06781483504949033,0.07056908405650664,0.06874323710718597,-0.05492297469651397
1.253000020980835,car (1).jpg,0.0618698521697345,0.07116744025557521,0.06604978484508811,-0.05609952582115243,0.06838227878597722,0.06889636890844929,0.06968891706334555,0.07035761420221498,0.062155775684806784,0.07075876095995437,0.05994094132673041,0.06904831606725646,0.0678081518778982,0.0705748061030872,0.06873152479309139,-0.05455168986936687
1.5510001182556152,car (1).jpg,0.0619719772901508,0.07117541982834576,0.06604947192066574,-0.0558846361499591,0.06836833129743711,0.06889677123984948,0.06968576546737736,0.07035497669636925,0.06212651725131479,0.07077358016652824,0.06001870304569042,0.06906183887265192,0.06780958238954334,0.07057386732982007,0.06874348297637498,-0.054887904809463595
1.5520000457763672,car (1).jpg,0.06192432337097208,0.07118304177320502,0.06606397820281723,-0.056172548970287915,0.06836725841370325,0.06891015993477821,0.06969975765940638,0.0703692594610762,0.06217761333913962,0.07076718756761402,0.059954642946081514,0.06905598271560463,0.06781968537803713,0.07058160103340161,0.06874142661588509,-0.05465533490840613
1.5520000457763672,car (1).jpg,0.06189841769914838,0.0711698989474653,0.06604906958926554,-0.05590598206591392,0.06838489394007849,0.068895765411349,0.06968581017086627,0.07035558019346955,0.06212989236472754,0.07076886394844817,0.059969640966611025,0.06905828494528353,0.06780850950580948,0.07057952232116727,0.06873919144143956,-0.05469181295535719
1.5520000457763672,car (1).jpg,0.06199144565957137,0.07119064136631982,0.06606592280458484,-0.05597735118595972,0.06836361507935704,0.06891223864701256,0.06970060702569568,0.07036818657734234,0.062169432600668977,0.07078238675384363,0.06001324922004333,0.06906968433495574,0.06782576505252898,0.07058146692293488,0.06875611171199222,-0.05495124965324994
1.5520000457763672,car (1).jpg,0.061873160227913886,0.07117953254932553,0.0660621453597719,-0.05602265817197063,0.0683929405680824,0.06890788005684377,0.06969955649370628,0.07036890183316491,0.06216695155703444,0.07076975801822638,0.059922255268365775,0.06905895549761719,0.0678191489361702,0.07058689839683752,0.06874410882521972,-0.054557098991525055
1.5529999732971191,car (1).jpg,0.06198091798793292,0.07118733330814044,0.06606107247603804,-0.05579677144250529,0.06838040123944297,0.06890808122254387,0.06969799187159441,0.07036613021685245,0.06214218582417796,0.07078587362597866,0.06000294506584943,0.06907370764895769,0.06782180879376039,0.07058683134160415,0.06875740811317063,-0.05489141403334308
1.5529999732971191,car (1).jpg,0.061938360266490015,0.0711949999564886,0.0660768975111124,-0.05607426834991793,0.06837964128013149,0.06892227458027299,0.06971260991246818,0.07038153056878216,0.06219976391789483,0.07077865401251959,0.05992540686433397,0.06906749386399912,0.06783057067758687,0.07059398389982985,0.06875474825558045,-0.05467151757139177
1.5529999732971191,car (1).jpg,0.061920456519181315,0.07118317588367175,0.06606301707780565,-0.055817044474726255,0.06839890848385197,0.06890817062952169,0.06969870712741698,0.07036814187385343,0.06215423341443937,0.07078135857359868,0.05993886261449607,0.06907071251520068,0.06781979713675941,0.07059217340852897,0.06875293776427957,-0.054701826536873166
1.553999900817871,car (1).jpg,0.06202305102623117,0.07120163842459183,0.06607765747042388,-0.05589480619368627,0.06837414275099549,0.06892263220818427,0.06971062060721166,0.070379608318759,0.062185816429354716,0.0707923556318707,0.05998542129819647,0.06907963086123835,0.06783381168053289,0.07059221811201788,0.06876704171503087,-0.054951987260816966
1.553999900817871,car (1).jpg,0.06190852068764218,0.07119093193899774,0.0660745952814335,-0.05596002858400686,0.06840295414959838,0.0689187653563935,0.0697097488891779,0.0703791612838699,0.06218333538572018,0.07078012922765364,0.059907637227492004,0.06906921494832217,0.06782737437812976,0.07059767193766497,0.06875483766255827,-0.05456322336950581
1.553999900817871,car (1).jpg,0.06200995290398036,0.07119803979373453,0.06607345534246628,-0.05573747226446536,0.06839023600700331,0.06891885476337133,0.06970693256937653,0.07037596498441279,0.06215575333306233,0.07079552957958335,0.05999820649602491,0.06908338595430684,0.06782967660780866,0.07059760488243161,0.06876771226736453,-0.05489972888228045
1.5550000667572021,car (1).jpg,0.06197170906921733,0.07120559468336042,0.06608762634845095,-0.05601280105266584,0.06838847021919134,0.0689322211065556,0.0697217517759504,0.07039058302528656,0.062211163307567034,0.07079092512022556,0.059937253288895286,0.06907976497170508,0.06784194771551462,0.0706074620017364,0.068768226357487,-0.05468255933315269
1.5550000667572021,car (1).jpg,0.06194005899906862,0.07119564815707781,0.06607602579307864,-0.055743551938957206,0.06841115723981347,0.06892093347560567,0.06971102293861185,0.07038077060947068,0.062161251862198334,0.07079222152140396,0.059954262966425774,0.06908101666939458,0.06782972131129757,0.0706047574406573,0.06876476183709643,-0.05471170600792241
1.5550000667572021,car (1).jpg,0.06203800434327177,0.0712141554014868,0.06609017444731885,-0.05580188999198556,0.06838800083255778,0.06893559621996835,0.06972358461899573,0.07039272879275427,0.06219779696438276,0.07080498436748796,0.06000922590604137,0.06909181256196649,0.06784572516032757,0.07060567386217997,0.06878130212799335,-0.05497753530472938
1.5550000667572021,car (1).jpg,0.061916410853434904,0.07120284541879242,0.06608592761587234,-0.05586532424274972,0.06841509114683761,0.068930768243166,0.06972186353467268,0.07039080654273111,0.06219656761843772,0.0707923556318707,0.05993340878884897,0.06908126253858358,0.0678393549131578,0.07061059124596014,0.0687688745580762,-0.054576857933623546
1.555999994277954,car (1).jpg,0.062018468918617835,0.07121194257878573,0.06608653111297264,-0.055636017696382725,0.0684045411234547,0.06893199758911105,0.069720701243961,0.07038901840317469,0.06217323239722638,0.07080856064660081,0.06002695083939443,0.06909592528294627,0.06784212652947026,0.07061052419072678,0.06878203973556038,-0.054909340132396234
1.555999994277954,car (1).jpg,0.06198004626989916,0.07121974333760063,0.0661002997875571,-0.05592283528123323,0.06840174715539779,0.06894554274625096,0.06973438051156765,0.07040289883648143,0.062227167156597034,0.07080364326282064,0.059965215321208874,0.06909158904452194,0.06785296712553109,0.07061944253676444,0.06878139153497118,-0.054699166679282984
1.555999994277954,car (1).jpg,0.061943881147370476,0.07120923801770664,0.0660882521972957,-0.05567490973173496,0.06842468004520894,0.06893414335657876,0.06972360697074019,0.07039261703403199,0.062179490885673865,0.0708051631814436,0.059982314405717184,0.069093555998034,0.06784152303236997,0.07061794496988594,0.0687781281802807,-0.05471132602826667
1.555999994277954,car (1).jpg,0.06203954661363919,0.07122622534349267,0.06610092563640185,-0.05574002036333327,0.06839915435304098,0.06894695090615165,0.06973438051156765,0.07040415053417093,0.062212057377345246,0.0708157132048265,0.06004232883957968,0.0691023625853494,0.0678541070644983,0.07061716265883,0.06879156157869834,-0.05498488902865518
1.555999994277954,car (1).jpg,0.06191453330690066,0.071214557732887,0.06609730465380009,-0.0558092213641669,0.06842649053650982,0.06894205587411593,0.06973236885456667,0.07040323411264826,0.06221161034245614,0.070803710318054,0.059961884911285034,0.06909263957651134,0.06784874264582903,0.0706230635193662,0.06877989396809267,-0.05459565575071046
1.555999994277954,car (1).jpg,0.06201377505228222,0.07122258200914645,0.06609692467414435,-0.05557390219854143,0.0684162981410382,0.06894196646713811,0.06973029014233233,0.07039954607481314,0.06217785920832863,0.07081931183568381,0.06004286528144661,0.06910685528598491,0.06785126839295248,0.0706217671181878,0.06879310384906576,-0.054922952344769516
1.556999921798706,car (1).jpg,0.06196887039767151,0.07123129918948402,0.06611183328769604,-0.05585989276884708,0.06841366063519247,0.06895649510103406,0.06974557873553976,0.0704151699441874,0.06223675605496836,0.07081367919608107,0.059986784754608245,0.06910202730918256,0.06786255602390241,0.0706295678770027,0.06879294738685457,-0.054718411531259004
1.556999921798706,car (1).jpg,0.06192637973146197,0.07121840223293331,0.06609804226136712,-0.055608681512913885,0.06843487244068056,0.06894335227529434,0.06973353114527835,0.07040394936847083,0.062193103098047146,0.07081519911470403,0.0600087118159189,0.06910428483537255,0.06785162602086377,0.07062842793803548,0.0687903322327533,-0.054719506766737314
1.556999921798706,car (1).jpg,0.062022089901219594,0.07123715534653131,0.06611317439236336,-0.05568239756612749,0.06841182779214713,0.0689587749789685,0.06974618223264005,0.0704164663453658,0.06222204860711677,0.07082769373985455,0.06006631226138023,0.06911456663782199,0.06786561821289279,0.07062927730432478,0.06880533025328281,-0.05499707072938332
1.556999921798706,car (1).jpg,0.06190118931546084,0.07122457131440298,0.0661083017120721,-0.05576644012527944,0.068437398187804,0.06895361172599933,0.06974356707853878,0.07041454409534265,0.062214449014001964,0.0708146179693482,0.05997728526321474,0.06910339076559434,0.06785904680002293,0.07063477583346078,0.06879234388975428,-0.05458385402963806
1.556999921798706,car (1).jpg,0.06200154864806517,0.07123259559066243,0.06610814524986092,-0.05553141153233189,0.0684280998621106,0.06895423757484408,0.06974171188374899,0.0704118171825191,0.062188163362522524,0.07083104650152285,0.060066178150913495,0.06911865700705731,0.06786190782331321,0.07063477583346078,0.06880622432306102,-0.054920806577301806
1.558000087738037,car (1).jpg,0.0619684233627824,0.07124162569542238,0.06612361265702399,-0.05581686566077061,0.06842566352196497,0.06896881091222894,0.06975778278801235,0.07042815630771593,0.06225226816562034,0.07082624087646495,0.060006700158917924,0.06911465604479981,0.06787433539323037,0.0706443200283432,0.06880685017190577,-0.054730928508153975
1.558000087738037,car (1).jpg,0.061935499243199736,0.07123167916913976,0.06611248148828525,-0.05556107229722408,0.06844942342632096,0.06895805972314593,0.0697470539506738,0.07041892503725589,0.062196299397504255,0.0708287219200995,0.060008175374051974,0.06911751706809009,0.06786394183205864,0.0706449682289324,0.06880477145967143,-0.054739668040236
1.558000087738037,car (1).jpg,0.06204196060204036,0.07124985113738193,0.0661260042936807,-0.05561911977757451,0.06842416595508646,0.06897149312156357,0.06975802865720136,0.0704288715635385,0.06222037222628262,0.07084036717896071,0.06005891383396552,0.06912690480076132,0.06787681643686491,0.07064409651089865,0.06881880835518936,-0.05499691426717213
1.558000087738037,car (1).jpg,0.06193116300477541,0.07123963639016585,0.0661236573605129,-0.055702402377414986,0.06845179271123322,0.06896787213896181,0.06975717929091206,0.07042943035714988,0.06221994754313797,0.07082928071371088,0.059974647757369014,0.0691179641029792,0.06787205551529593,0.07065145023482444,0.06880801246261745,-0.05459368879719839
1.559000015258789,car (1).jpg,0.062034942154281396,0.07124674424490264,0.06612247271805677,-0.05546583151410002,0.06844128739133923,0.06896695571743915,0.06975333479086575,0.07042525058093674,0.06219156082767973,0.07084336231271772,0.060054421133330003,0.06913077165255209,0.0678721225705293,0.07064849980455634,0.06881900952088946,-0.05493958204264427
1.559000015258789,car (1).jpg,0.06201010936619155,0.07125619903280724,0.06613675548276371,-0.05575624772980782,0.06843782287094866,0.06898065733679025,0.06976864573581763,0.0704398239183216,0.062254168063899044,0.0708375732109038,0.059999257028014306,0.06912565310307182,0.06788338784973477,0.07065558530754867,0.06881847307902253,-0.054757124752655595
1.559000015258789,car (1).jpg,0.06195409589458655,0.07124097749483317,0.06612316562213488,-0.05550684696517551,0.06846046518808188,0.0689667769034835,0.06975559231705573,0.07042605524373713,0.06221594658088047,0.07083775202485944,0.0600238662986596,0.06912656952459449,0.06787203316355148,0.07065292544995849,0.06881491915165414,-0.05474094208966995
1.559000015258789,car (1).jpg,0.06205365056439049,0.07125874713167514,0.0661375601455641,-0.05555964178557894,0.06843596767615887,0.06898164081354628,0.06976784107301724,0.07044018154623288,0.06224272397073793,0.07085154305118836,0.060083321938910715,0.06913848300438917,0.06788763468118128,0.07065583117673768,0.06883199588441799,-0.05501515329064766
1.559000015258789,car (1).jpg,0.06194258474619207,0.07124944880598173,0.06613635315136351,-0.05564162798424101,0.06846408617068364,0.06897969621177867,0.06976886925326219,0.07044219320323386,0.06224699315392889,0.07084175298711694,0.059997781812880256,0.06913106222523001,0.06788577948639149,0.0706656212408091,0.06882325635233597,-0.0546139394776749
1.559999942779541,car (1).jpg,0.06203507626474813,0.07125794246887475,0.06613686724148599,-0.05540501241743712,0.06845704537118022,0.06898103731644599,0.06976770696255051,0.0704398239183216,0.06222247329026142,0.07085525344076794,0.060087948750012964,0.0691432662777026,0.06788524304452456,0.07066244729309645,0.06883382872746333,-0.05495306014455082
1.559999942779541,car (1).jpg,0.06200682365975662,0.07126538559977837,0.06615054650909263,-0.055697172069212444,0.06845058571703264,0.0689937331072966,0.06978122976794597,0.0704531232062725,0.06228474525031391,0.07085143129246609,0.06003810435987763,0.06914047230964569,0.067898028242353,0.07067194678448996,0.0688351921838751,-0.05477113929642907
1.559999942779541,car (1).jpg,0.061954073542842096,0.07125438854150636,0.06613970591303181,-0.05545800840354066,0.06847512793244456,0.06898251253158004,0.06977074679979643,0.07044286375556752,0.062232643333988584,0.07085384528086726,0.06004496634542541,0.0691434674434027,0.06788776879164801,0.0706717232670454,0.06883313582338521,-0.05474686530195061
2.0260000228881836,car (1).jpg,0.06205148244517832,0.07127329811731554,0.06615452511960568,-0.05551198786640023,0.06845212798740005,0.06899777877304301,0.0697838672737917,0.07045564895339596,0.06226237115411415,0.07086649636822896,0.06010587484906612,0.06915359278364096,0.06790131394878793,0.0706717232670454,0.06884824560263701,-0.05503155947107786
2.0260000228881836,car (1).jpg,0.061938650839167934,0.07126268103869927,0.06615115000619293,-0.05560251243144422,0.06847787719701257,0.06899406838346343,0.06978259322435774,0.07045576071211823,0.06226415929367057,0.07085447112971201,0.060012980999109865,0.06914335568468043,0.06789597188186311,0.07067833938340418,0.06883646623330905,-0.054623483672557316
2.0280001163482666,car (1).jpg,0.06201022112491383,0.07127727672782859,0.06616252704412068,-0.0556409797836518,0.06846254390031623,0.06900560188360237,0.06979280797157382,0.07046490257560045,0.062299720919098966,0.07086283068213829,0.06004375935122482,0.06915108938826196,0.06790694658839067,0.0706818262555392,0.06884723977413651,-0.05479264167459508
2.0280001163482666,car (1).jpg,0.06196229898480165,0.07126513973058936,0.06614958538408106,-0.05539906685341201,0.06848648261862786,0.06899225789216255,0.06978096154701251,0.07045305615103914,0.06225555387205527,0.07086394826936106,0.06005332589785169,0.06915294458305175,0.0678965753789634,0.0706809768892499,0.0688444905095685,-0.05476796534871642
2.0280001163482666,car (1).jpg,0.062071397849488,0.07128534570757696,0.06616514219822195,-0.055447368973179936,0.06846498024046185,0.06900774765107008,0.06979430553845233,0.07046669071515688,0.062290199075961006,0.07087700168812296,0.060122325732985225,0.06916414280702386,0.067911282826815,0.0706815803863502,0.06886087433825426,-0.0550485915003528
2.0280001163482666,car (1).jpg,0.0619574710079993,0.07127517566384979,0.0661630634859876,-0.05555130458489711,0.06849155646461921,0.06900441724114624,0.0697942161314745,0.07046653425294569,0.06229636815743067,0.07086575876066194,0.06003633857206566,0.06915515740575283,0.06790775125119106,0.07068940349690955,0.06885048077708254,-0.0546351959866519
2.0280001163482666,car (1).jpg,0.062046900337564985,0.07128199294590866,0.06616214706446494,-0.05531211856748087,0.0684839121680155,0.06900405961323496,0.06979124334946195,0.07046371793314432,0.06226921078791747,0.07087954978699086,0.06012614788128708,0.06916792025183681,0.06790712540234631,0.07068745889514194,0.06886127666965446,-0.05497103094709289
2.0290000438690186,car (1).jpg,0.06202526384893225,0.07129030779484603,0.0661760722012606,-0.05560360766692253,0.06847751956910128,0.06901742595641923,0.06980490026532414,0.07047771012517334,0.06232238558797665,0.07087512414158871,0.06006742984860299,0.06916396399306822,0.06791865890248525,0.07069622077896842,0.06886156724233237,-0.0548125347271603
2.0290000438690186,car (1).jpg,0.06197430187157415,0.07127653912026156,0.06616192354702038,-0.055364712222184205,0.06850040775542351,0.0690044842963796,0.0697916680326066,0.07046662365992351,0.06226527688089334,0.07087461005146624,0.060072369584127615,0.06916351695817911,0.06790607487035691,0.07069514789523457,0.06885618047191865,-0.05477411207844163
2.0290000438690186,car (1).jpg,0.06208221609380437,0.0712952251786262,0.06617589338730495,-0.055410913277973324,0.06847602200222278,0.06901975053784258,0.06980384973333474,0.07047860419495156,0.06228966263409408,0.07088770817371705,0.06013408275056872,0.06917415638853984,0.0679197317862191,0.07069546081965694,0.06887167023082617,-0.05506182373307034
2.0290000438690186,car (1).jpg,0.061970032688383185,0.07128413871337637,0.06617289825354794,-0.05551402187514566,0.06850112301124608,0.06901635307268537,0.06980338034670118,0.07047916298856294,0.06229462472136316,0.07087469945844406,0.06004248530179087,0.06916304757154555,0.06791472499546111,0.07070212163950462,0.06885917560567566,-0.054654105562461086
2.0290000438690186,car (1).jpg,0.062063194759272904,0.07128990546344584,0.06617088659654696,-0.055262408287812266,0.06849394810127593,0.06901431906393994,0.06979924527397695,0.07047444677048287,0.06226961311931767,0.07089186559818574,0.060126997247576384,0.06917891731010882,0.06791740720479575,0.07070234515694918,0.06887323485293805,-0.05497492015062811
2.0290000438690186,car (1).jpg,0.0620463415439536,0.07130244479208526,0.06618885739908903,-0.05554363793654894,0.06848992478727398,0.06903047937518113,0.06981746194570802,0.07049107646835762,0.06233065573342511,0.07088723878708349,0.060074940034739975,0.06917489399610686,0.06792911951889033,0.07070965417738606,0.0688739054052717,-0.05481814501501858
2.0290000438690186,car (1).jpg,0.061995133697406495,0.07128923491111218,0.06617535694543802,-0.05531392905878175,0.06851326000848532,0.06901617425872973,0.0698041179542682,0.07047824656704027,0.06228635457591469,0.07088685880742775,0.06007391185449503,0.0691750281065736,0.06791736250130684,0.07070741900294053,0.06886950211161401,-0.05478101876747832
2.0299999713897705,car (1).jpg,0.06210293616091444,0.07130839035611038,0.06618910326827804,-0.055360711259926705,0.06848974597331833,0.06902987587808083,0.06981629965499635,0.07048917657007892,0.062314204849506005,0.07089933108083381,0.06013631792501425,0.06918510874332294,0.06793030416134646,0.07070697196805142,0.06888438837342124,-0.05507230670121988
2.0299999713897705,car (1).jpg,0.061987131772891495,0.07129822031238321,0.06618718101825488,-0.055474951025837785,0.06851419878175244,0.06902688074432382,0.0698161208410407,0.07048966830845693,0.06232269851239902,0.07088819991209507,0.06004990608095003,0.06917598923158517,0.06792755489677846,0.070715935017578,0.06887397246050507,-0.05467384215281512
2.0299999713897705,car (1).jpg,0.06208449597173881,0.07130503759444208,0.06618613048626548,-0.05522467854317171,0.0685087673078498,0.06902663487513482,0.06981305865205033,0.07048700845086675,0.0622939541690295,0.0709026391390132,0.06013808371282622,0.06918933322302499,0.06792735373107836,0.07071425863674385,0.06888508127749936,-0.0549841290693437
2.0299999713897705,car (1).jpg,0.06206601107907427,0.07131552056259162,0.06620244725971786,-0.05550760692448699,0.06850308996475815,0.0690425940206759,0.06982910720456925,0.07050334757606358,0.06235043702726806,0.0709014321448126,0.060087367604657126,0.06918877442941361,0.06794232939986342,0.07072541215722705,0.06888876931533448,-0.05483611581756065
2.0299999713897705,car (1).jpg,0.06201755249709517,0.07130206481242952,0.06618800803279973,-0.05528587761949034,0.06852684986911414,0.06902851242166906,0.06981574086138496,0.07049000358462376,0.06230202314877786,0.07089752058953293,0.06008754641861277,0.06918553342646759,0.06792713021363381,0.07072080769786926,0.06888036505941929,-0.05479076412806083
2.0309998989105225,car (1).jpg,0.062116861297710095,0.0713179792544817,0.0662007261753948,-0.05531502429426006,0.06850132417694618,0.06904181170961997,0.06982655910570135,0.07050229704407418,0.06232643125372306,0.07091207157517333,0.06015775324794689,0.06919771512719573,0.06794125651612956,0.07072199234032539,0.06889708416427186,-0.05508004040480142
2.0309998989105225,car (1).jpg,0.06200662249405652,0.07131013379217789,0.06620054736143915,-0.055429800502038065,0.06852758747668117,0.06904123056426413,0.06982836959700223,0.07050500160515327,0.06232788411711265,0.07090154390353488,0.060059360868854626,0.06918866267069133,0.06793821667888364,0.07073079892764078,0.06888702587926697,-0.05466903652775723
2.0309998989105225,car (1).jpg,0.06209102268111976,0.07131652639109211,0.06619936271898302,-0.05517286719952431,0.06852213365103407,0.06904042590146374,0.06982519564928957,0.07050149238127379,0.062293730651584944,0.07091669838627558,0.06013850839597087,0.06920252075225362,0.06793850725156156,0.07072876491889535,0.068898514675917,-0.055001004636407454
2.0309998989105225,car (1).jpg,0.062074907073367484,0.07132725522843066,0.06621500894010174,-0.05545579558083959,0.06851439994745254,0.06905470866617068,0.069840484242497,0.070515886904703,0.062359467132028,0.07091242920308462,0.06009145797389245,0.06919914563884087,0.06795115833892326,0.07073542573874303,0.0688997663736065,-0.05485900400388288
2.0309998989105225,car (1).jpg,0.062007471860345824,0.07131348655384619,0.06620188846610647,-0.05522923829904059,0.06853900921809783,0.06904114115728631,0.0698282801900244,0.0705036381487415,0.062315389491962137,0.07091144572632858,0.06006476999101281,0.06919887741790741,0.06793877547249502,0.07073417404105353,0.06889464782412623,-0.054808600820136166
2.0309998989105225,car (1).jpg,0.06212354446930223,0.0713312338389437,0.06621413722206798,-0.05526180479071197,0.06851326000848532,0.06905383694813692,0.06983798084711801,0.07051307058490164,0.06233975289341842,0.07092456620032385,0.06013748021572592,0.06920974036571269,0.06795120304241217,0.07073361524744215,0.0689097128998891,-0.055088444660716614
2.0320000648498535,car (1).jpg,0.062016032578472206,0.07132332132140652,0.06621433838776808,-0.0553861698968613,0.06853956801170921,0.06905262995393634,0.06984019366981908,0.07051441168956896,0.06234737483827768,0.07091332327286283,0.06005086720596161,0.06920044204001928,0.06794901257145555,0.07074257829696873,0.06889938639395075,-0.054685018025042775
2.0320000648498535,car (1).jpg,0.06210722769584986,0.07133020565869876,0.06621344431798987,-0.055127873137935775,0.06853476238665132,0.06905287582312535,0.06983724323955098,0.07051311528839055,0.06231170145412701,0.07093098115098252,0.060135423855236035,0.06921707173789403,0.06795102422845653,0.07074396410512496,0.06891264097841275,-0.05501408040691381
2.0320000648498535,car (1).jpg,0.06210023159983535,0.07134276733908264,0.06623121395483184,-0.055408476937827696,0.06852870506390393,0.06906970668670019,0.06985436467580375,0.07053063905604351,0.06237305699265683,0.07092820953467006,0.06009239674715957,0.06921506008089305,0.06796432351640744,0.07075225660231788,0.06891501026332501,-0.05488524495187341
2.0320000648498535,car (1).jpg,0.06205483520684662,0.07132866338833134,0.06621766879769192,-0.05518256785661791,0.06855275554093784,0.06905616152956028,0.0698423841407757,0.0705194408320714,0.06232904640782433,0.0709253932148687,0.060087747584312866,0.06921349545878118,0.06795129244939,0.0707498426139167,0.06890823768475506,-0.054814792253350286
2.0320000648498535,car (1).jpg,0.06217164542337005,0.07134629891470658,0.06622973873969779,-0.055213212098266136,0.06852758747668117,0.06906827617505505,0.06985195068740258,0.07052726394263076,0.06234708426559976,0.07093985479353128,0.06014910312284268,0.06922543129032031,0.06796443527512971,0.07074977555868334,0.06892433094076288,-0.0550978547451323
2.0320000648498535,car (1).jpg,0.0620665475209412,0.07133814052798039,0.06622971638795333,-0.055340326468983465,0.06855266613396002,0.06906780678842149,0.06985420821359256,0.07053088492523252,0.06235904244888335,0.07092704724395839,0.060065373488113104,0.06921497067391523,0.0679607919407835,0.07075750926226487,0.06891257392317938,-0.05468403454828674
2.0320000648498535,car (1).jpg,0.06214998658299286,0.07134285674606046,0.0662270788821076,-0.05508493543683713,0.06854694408737946,0.06906566102095378,0.06984978256819041,0.07052576637575225,0.06232989577411363,0.07094381105229987,0.06015822263458045,0.0692304380810783,0.06796202128672854,0.07075779983494279,0.06892522501054109,-0.05501146525281254
2.0329999923706055,car (1).jpg,0.06214012946368807,0.07135526196423315,0.06624462500150502,-0.05536464516695084,0.06854030561927624,0.0690824024775508,0.06986732868758783,0.07054223961141581,0.06239829211214687,0.07094032418016484,0.06012321980276344,0.06922744294732129,0.06797482883630143,0.07076466182049057,0.06892703550184197,-0.05489049761182041
2.0329999923706055,car (1).jpg,0.06208534533802811,0.07134097919952621,0.0662304316437759,-0.0551488167224904,0.06856533957306618,0.0690684549890107,0.06985420821359256,0.07053021437289886,0.062353499216258435,0.07093735139815228,0.060113854421836664,0.06922520777287576,0.06796173071405062,0.07076211372162267,0.0689202182197831,-0.05482214597727608
2.0329999923706055,car (1).jpg,0.06219871338590543,0.0713587935398571,0.06624227806833721,-0.05517861159784932,0.06854059619195416,0.06908061433799438,0.0698642888503419,0.07053919977416989,0.062375068649657806,0.0709515447558814,0.06018582703898275,0.06923732241837054,0.06797505235374598,0.0707624489977895,0.06893649028974656,-0.05512771667572459
2.0329999923706055,car (1).jpg,0.06208849693399631,0.07135117159499783,0.06624319448985988,-0.05531187269829186,0.06856612188412212,0.06908115077986131,0.06986775337073248,0.07054418421318343,0.06238371877476201,0.070939743034809,0.06009467662509401,0.06922753235429911,0.06797310775197837,0.07077100971591588,0.06892569439717465,-0.05471436586551259
2.0329999923706055,car (1).jpg,0.0621714219059255,0.07135369734212128,0.0662380312368907,-0.055056146389978695,0.0685593269538077,0.06907636750654787,0.06986095844041806,0.07053569055029041,0.06234800068712243,0.07095297526752654,0.060170851370197696,0.06923966935153834,0.06797098433625512,0.0707677463612254,0.06893501507461251,-0.055021054151183864
2.0329999923706055,car (1).jpg,0.06215602155399579,0.07136646018820526,0.06625539854233248,-0.0553375101491821,0.06855246496825992,0.069093555998034,0.06987850455981548,0.07055372840806584,0.062401980149981995,0.07095288586054872,0.06012239278821859,0.06923987051723844,0.06798663055737383,0.07077827403286385,0.06893968658920367,-0.054901137042181136
2.0339999198913574,car (1).jpg,0.06210032100681317,0.07135360793514346,0.06624314978637097,-0.055123447492533624,0.0685791305993951,0.06908191073917279,0.06986770866724357,0.07054400539922778,0.0623546168034812,0.0709512988866924,0.060115843727093186,0.06923917761316033,0.06797453826362351,0.07077767053576356,0.06893387513564529,-0.05482634810523368
2.0339999198913574,car (1).jpg,0.06221876290068184,0.07137220458653028,0.06625618085338841,-0.05514275939974301,0.06855478954968328,0.06909529943410152,0.06987837044934875,0.07055482364354415,0.06237629799560285,0.07096495580255459,0.0601883527861062,0.06925062170632144,0.06798683172307393,0.07077664235551862,0.06894961076374183,-0.05514193238519816
2.0339999198913574,car (1).jpg,0.06211174274822983,0.07136440382771538,0.06625615850164396,-0.055285654102045785,0.068578683564506,0.06909429360560103,0.06988091854821665,0.07055636591391157,0.06239198892021047,0.07095297526752654,0.06010102452051932,0.06924076458701665,0.06798484241781741,0.07078413018991114,0.06893885957465883,-0.05472272541793888
2.0339999198913574,car (1).jpg,0.06220242377548501,0.0713676448306614,0.06625159874577508,-0.05502527863088592,0.06857390029119256,0.06909058321602145,0.06987436948709125,0.07055109090222011,0.0623544156377811,0.07096555929965488,0.06018108846915823,0.06925232043890005,0.06798191433929376,0.07078104564917631,0.06894721912708511,-0.055030866566999743
2.0339999198913574,car (1).jpg,0.06219605352831525,0.07137844072323331,0.0662670885046826,-0.0553114033116583,0.06856473607596589,0.06910564829178432,0.0698890992866873,0.07056586540530507,0.062416844060044774,0.07096294414555361,0.06014181645415025,0.06925026407841016,0.06799499010980012,0.07078810880042419,0.06894987898467529,-0.054919711341823496
2.0339999198913574,car (1).jpg,0.06214180584452222,0.07136516378702686,0.06625459387953209,-0.055112249268561515,0.06859124524488988,0.06909324307361163,0.06987799046969301,0.07055536008541108,0.06237077711472239,0.07096258651764233,0.060135334448258214,0.06925075581678818,0.06798461890037286,0.07078884640799121,0.06894565450497324,-0.05484188256763012
2.0339999198913574,car (1).jpg,0.06225758788080071,0.07138612972332593,0.06626941308610595,-0.05513303639090495,0.06856929583183477,0.06910857637030797,0.06989050744658798,0.07056743002741694,0.06239176540276592,0.07097901504981698,0.060206904734004106,0.06926506093323957,0.06799979573485801,0.07079117098941456,0.06896398293542659,-0.0551355621380284
2.0350000858306885,car (1).jpg,0.06214922662368138,0.07137902186858915,0.06627035185937308,-0.05527700397694158,0.06859336866061314,0.0691087104807747,0.06989410607744528,0.07057181096933018,0.062402695405804565,0.07096609574152181,0.060110233439234904,0.06925451090985667,0.06799677824935654,0.07079836825112917,0.06895215886260973,-0.05474311020888212
2.0350000858306885,car (1).jpg,0.062227725950208417,0.07138060884244547,0.06626458510930361,-0.05500522911610951,0.06858728898612129,0.06910359193129444,0.06988646178084157,0.07056427843144875,0.06236489860593064,0.07097879153237242,0.060186430536083045,0.06926640203790689,0.06799382781908844,0.07079465786154959,0.06896098780166958,-0.05504244477062759
2.0350000858306885,car (1).jpg,0.0622194334530155,0.0713948469036635,0.06628351703685725,-0.05527973088976513,0.06857975644823985,0.06912151803034759,0.06990494667350611,0.07058131046072369,0.062433026723030416,0.07098006558180638,0.060149237233309415,0.06926812312222995,0.06801077044138557,0.07080462673957667,0.06896742510407271,-0.05493712335075419
2.0350000858306885,car (1).jpg,0.06215742971389648,0.07138045238023429,0.06627050832158426,-0.055084153125781195,0.06860588563750811,0.06910833050111896,0.06989350258034499,0.07057120747222989,0.062396839248757274,0.07097673517188254,0.060092799078559765,0.06926584324429551,0.06799796289181267,0.07080335269014272,0.06896076428422503,-0.05484914688457809
2.0360000133514404,car (1).jpg,0.06227940318338909,0.07140025602582169,0.06628445581012438,-0.055109634114460244,0.06858402563143082,0.06912245680361472,0.06990523724618403,0.07058202571654626,0.06241456418211033,0.07099218022730115,0.06015768619271352,0.06927894136654632,0.06801083749661893,0.07080424675992093,0.06897759514779987,-0.0551528176847479
2.0360000133514404,car (1).jpg,0.062165677507600485,0.07139185176990649,0.0662847463828023,-0.05527443352632922,0.0686070926317087,0.06912180860302551,0.0699070477374849,0.07058392561482496,0.062429606906128754,0.07098031145099538,0.060069754430026344,0.0692691513024749,0.0680088034878735,0.0708121145739692,0.06896708982790588,-0.05474058446175867
2.0360000133514404,car (1).jpg,0.062250189453386,0.07139587508390845,0.06628061131007806,-0.055013052226668864,0.06860385162876267,0.06911876876577959,0.06990183978102682,0.07057853884441123,0.06240195779823754,0.07099332016626837,0.06015668036421303,0.06928108713401403,0.06800665772040579,0.07080934295765674,0.06897652226406602,-0.055044188206695106
2.0360000133514404,car (1).jpg,0.06222390380190656,0.07140568749972433,0.06629695043527489,-0.05527642283158574,0.06859381569550224,0.06913506318748751,0.06991907297600186,0.07059476621088578,0.06247305869734987,0.0709915543784564,0.06011962117190613,0.06927934369794651,0.0680202028775457,0.07081763545484966,0.06898021030190114,-0.05497078507790388
2.0360000133514404,car (1).jpg,0.06215052302485979,0.0713920976390955,0.06628405347872418,-0.055080487439690524,0.06862112952722663,0.06912308265245946,0.06990747242062956,0.0705834562281914,0.06242857872588381,0.0709894533144776,0.0600897815930583,0.06927777907583464,0.06800844585996221,0.07081835071067223,0.06897386240647584,-0.05486249087601791
2.0360000133514404,car (1).jpg,0.06225989011047961,0.07141038136605994,0.06629632458643014,-0.05508131445423537,0.06859714610542608,0.06913638194041037,0.06991813420273474,0.07059279925737372,0.06244406848479134,0.07100319963731762,0.06014912547458714,0.0692887537823622,0.06802004641533452,0.07081810484148322,0.06898910629619436,-0.05518375249907404
2.0369999408721924,car (1).jpg,0.062137290792142245,0.07140213357235593,0.06629650340038579,-0.05523375335142056,0.0686188943527811,0.06913622547819918,0.06992083876381383,0.07059666610916449,0.0624575912901868,0.07099117439880066,0.06005200714492883,0.06927867314561285,0.068018302979267,0.07082637498693169,0.06897848921757808,-0.05477290508424104
2.0369999408721924,car (1).jpg,0.06220843639474349,0.07140490518866839,0.06629172012707235,-0.05495373069688448,0.06861580981204626,0.06913255979210851,0.0699142002957106,0.07059114522828402,0.062423504879892455,0.07100478661117395,0.06013008178831122,0.06929154775041911,0.06801604545307702,0.07082422921946398,0.0689880334124605,-0.05505742043941265
2.0369999408721924,car (1).jpg,0.06220117207779551,0.07141726570335218,0.06630819336273591,-0.05521410616804435,0.06860575152704138,0.0691485189376496,0.06993116526975218,0.07060629971102472,0.062489330767313334,0.07100373607918455,0.060097269427450827,0.06929083249459654,0.06803026116255059,0.07083131472245631,0.06899214613344028,-0.054979189333819074
2.0369999408721924,car (1).jpg,0.06212837244610458,0.07140331821481206,0.06629534110967411,-0.055013946296447076,0.06863402648377734,0.06913615842296582,0.06992007880450235,0.07059550381845281,0.062446884804592706,0.07100176912567248,0.06008633942441218,0.06928971490737378,0.0680189064763673,0.07083135942594522,0.06898635703162635,-0.05487679599246931
2.0369999408721924,car (1).jpg,0.062237828938702215,0.07142283128772155,0.06630826041796928,-0.05501653909880389,0.06861080302128827,0.06914965887661682,0.06993156760115238,0.07060540564124651,0.062468409534503166,0.07101656598050189,0.060165621061995155,0.06930229893950211,0.06803106582535098,0.0708310688532673,0.069002785563801,-0.055178835115293874
2.50600004196167,car (1).jpg,0.06211793418144395,0.07141572343298476,0.06630944506042541,-0.05518019857170565,0.06863266302736556,0.06914943535917227,0.06993436156920929,0.07060840077500352,0.06248705088937889,0.07100407135535138,0.060076325842896204,0.0692919500818193,0.06802892005788327,0.07083810965277072,0.06899143087761771,-0.05478244927912346
2.50600004196167,car (1).jpg,0.062173433562926476,0.07141815977313039,0.06630441591792297,-0.05491027890566336,0.06862991376279756,0.06914485325155893,0.06992738782493924,0.070600912940611,0.062449030572060416,0.0710172141810911,0.0601533946577781,0.0693039082651029,0.06802567905493725,0.07083468983586906,0.06899999159574409,-0.055076240608244016
2.50600004196167,car (1).jpg,0.062159575481364186,0.07143034147385853,0.06632073269137534,-0.0551795727228609,0.06861905081499228,0.06916099121105566,0.06994341402571369,0.07061716265883,0.06251682341299336,0.07101670009096862,0.060122236326007404,0.0693035059337027,0.06803993946789974,0.07084235648421723,0.06900439488940179,-0.05499724954333896
2.506999969482422,car (1).jpg,0.06207859511120261,0.0714154552120513,0.06630767927261344,-0.0549906781304691,0.06864495648681598,0.06914798249578268,0.06993109821451882,0.07060629971102472,0.062475942072384605,0.07101401788163399,0.060107327712455715,0.0693020083668242,0.06802896476137218,0.0708432729057399,0.06899831521490994,-0.05488406030941728
2.506999969482422,car (1).jpg,0.062182910702575526,0.07143476711926068,0.06632124678149781,-0.054997003674149954,0.06862108482373772,0.06916179587385606,0.069942005865813,0.07061693914138545,0.06248747557252354,0.07102827829459647,0.06017874153599042,0.06931396655010778,0.0680408111859335,0.07084325055399544,0.06901407319475093,-0.05519036861543281
2.506999969482422,car (1).jpg,0.06207003439307623,0.07142774867150171,0.06632278905186523,-0.05517505767048093,0.06864245309143699,0.0691621758535118,0.06994482218561437,0.07062035895828711,0.06250287592445325,0.07101609659386833,0.060085087726722684,0.06930361769242498,0.06803991711615529,0.07085163245816618,0.06900372433706813,-0.05478428212216879
2.506999969482422,car (1).jpg,0.06213440741710751,0.0714300061976917,0.0663178046128517,-0.05490388630674914,0.0686407990623473,0.06915788431857638,0.06993896602856708,0.07061425693205081,0.06246282159838934,0.07102997702717508,0.06016213418986013,0.06931617937280886,0.0680381066248544,0.07084935258023174,0.06901342499416173,-0.05508066625364617
2.506999969482422,car (1).jpg,0.06213512267293008,0.07144158440131955,0.06633324966827031,-0.055169357975644824,0.06862893028604153,0.06917315056003935,0.06995371817990759,0.07063005961538071,0.06252411008168579,0.07102783125970737,0.06012829364875479,0.06931407830883006,0.06805042243604928,0.07085505227506785,0.06901619661047419,-0.055005854964954255
2.506999969482422,car (1).jpg,0.06205829972723719,0.07142828511336864,0.066321649112898,-0.05498059749371976,0.06865821107127798,0.06916139354245586,0.06994332461873587,0.07062047071700939,0.06247891485439716,0.07102570784398411,0.060109473479923424,0.06931311718381848,0.06803931361905499,0.07085574517914596,0.06901020634296016,-0.054873622044756654
2.506999969482422,car (1).jpg,0.062174685260615974,0.0714464570816108,0.06633369670315942,-0.05497440606050564,0.06863360180063269,0.06917368700190628,0.06995280175838492,0.07062753386825726,0.062495611607505275,0.07104215872790322,0.06019177260300786,0.06932780227992562,0.06805352932852857,0.07085695217334655,0.06902806538677995,-0.0551873734816758
2.506999969482422,car (1).jpg,0.06206205482030568,0.07144216554667539,0.06633836821775058,-0.05514412285615478,0.06865879221663382,0.06917741974323031,0.06996062486894428,0.07063692160092849,0.06251704693043791,0.07102955234403042,0.06010726065722235,0.06931763223619845,0.0680521658721168,0.07086546818798402,0.06901756006688596,-0.05479096529376093
2.507999897003174,car (1).jpg,0.06212723250713736,0.07144288080249796,0.06633168504615844,-0.05486863760574312,0.06865657939393274,0.06917093773733828,0.0699520641508179,0.07062757857174617,0.06247790902589667,0.07104309750117034,0.06018991740821807,0.06932990334390442,0.068050064808138,0.07086336712400522,0.06902712661351283,-0.05508674592813801
2.507999897003174,car (1).jpg,0.06212332095185768,0.07145573305555976,0.06634849355798883,-0.05513484688220583,0.06864542587344954,0.06918741097300184,0.0699689173661372,0.07064398475217637,0.06254445016914012,0.07104240459709223,0.060166090448628716,0.06932936690203749,0.06806403464842256,0.07087038557176419,0.06903141814844825,-0.055029100779187774
2.507999897003174,car (1).jpg,0.062039613668872555,0.07144098090421926,0.06633617774679396,-0.05495748578995297,0.0686730079261074,0.06917505045831805,0.06995814382530974,0.07063368059798247,0.06250005960465188,0.07103862715227928,0.06013967068668254,0.0693269082101474,0.06805194235467224,0.07087029616478636,0.06902415383150028,-0.054896286713634335
2.507999897003174,car (1).jpg,0.06215184177778265,0.07145930933467261,0.06634804652309972,-0.054963140781300164,0.06864871157988447,0.06918743332474629,0.06996750920623651,0.07064239777832004,0.06251322478213606,0.07105570388504313,0.06020983281252775,0.06934154860276563,0.06806602395367908,0.0708723301735318,0.06904219168927571,-0.055202595019649865
2.507999897003174,car (1).jpg,0.062046609764887066,0.07145510720671501,0.06635211454059059,-0.0551444134288327,0.06867184563539572,0.06919069667943677,0.06997425943306201,0.07064966209526802,0.06253229082015643,0.07104343277733717,0.06011331797996974,0.06933124444857174,0.0680654651600677,0.07088167320271412,0.06903199929380409,-0.054790987645505385
2.507999897003174,car (1).jpg,0.0621072053441054,0.07145580011079312,0.06634567723818746,-0.054864703698718986,0.06867097391736196,0.06918528755727858,0.0699668163021584,0.07064215190913103,0.06249185651443678,0.0710557709402765,0.06018783869598373,0.06934264383824394,0.0680618665292104,0.07087791810964562,0.06904002357006354,-0.055096960675354086
2.507999897003174,car (1).jpg,0.062110245181351324,0.0714695687853776,0.06636342452328498,-0.05511937947504276,0.06865966393466758,0.06920214077259788,0.06998304366863295,0.07065815575816103,0.06255441904716719,0.07105659795482135,0.06016365410848309,0.06934378377721116,0.06807704336369555,0.07088522713008251,0.06904608089281093,-0.05504003078222642
2.507999897003174,car (1).jpg,0.06203112000597954,0.07145300614273621,0.06634882883415566,-0.05493672101935399,0.06868438496403514,0.0691872768625351,0.06996963262195977,0.07064613051964408,0.0625146552937812,0.07104935598961783,0.06014458807046271,0.06933794997190833,0.06806240297107732,0.07088258962423678,0.06903591084908377,-0.05488951413506438
2.509000062942505,car (1).jpg,0.06214576210329081,0.07147097694527828,0.06636038468603905,-0.05492563455410415,0.06866089328061262,0.06919932445279652,0.06997884154067535,0.07065560765929313,0.06252992153524417,0.07106694681250415,0.06022550138539092,0.06935352913779368,0.06807664103229535,0.07088540594403815,0.06905464161093731,-0.05521099927556506
2.509000062942505,car (1).jpg,0.06203585857580406,0.0714664618928983,0.0663643632965521,-0.055112115158094784,0.06868306621111228,0.0692021854760868,0.06998487651167828,0.0706617767407628,0.0625496134221093,0.07105391574548671,0.060133233384279415,0.0693426661899884,0.06807541168635031,0.0708927820197084,0.06904366690440976,-0.05480766204686904
2.509000062942505,car (1).jpg,0.06209294493114292,0.07146670776208731,0.06635801540112679,-0.0548363393350052,0.0686825074175009,0.06919590463589485,0.06997642755227418,0.07065314896740305,0.06250649690705501,0.07106618685319267,0.060208245838671424,0.06935355148953813,0.06807138837234836,0.0708887810574509,0.06905162412543585,-0.05510154278296742
2.509000062942505,car (1).jpg,0.062101237428335836,0.07148025291922723,0.0663747121542349,-0.05509492666660865,0.06867072804817295,0.06921199789190267,0.06999205142164844,0.07066765524955454,0.06256780774209592,0.07106784088228237,0.060181759021491886,0.06935419969012734,0.06808748162835618,0.07089651476103244,0.06905832964877244,-0.05507460893089878
2.509000062942505,car (1).jpg,0.06202262634308652,0.07146749007314325,0.06636398331689636,-0.05491982310054577,0.06869962885375366,0.0692011349440974,0.06998369186922215,0.07065960862155063,0.06252840161662121,0.07106511396945882,0.060161374230548646,0.06935122690811478,0.06807742334335129,0.07089832525233332,0.0690518476428804,-0.05492380171105882
2.509000062942505,car (1).jpg,0.06214252110034479,0.07148608672453007,0.06637643323855796,-0.05489827601889086,0.06867653950173133,0.0692141883628593,0.06999339252631576,0.07067033745888918,0.06254073977956054,0.07108120722546664,0.06024344983618853,0.0693645708995546,0.06808915800919033,0.07089924167385599,0.06906872320994416,-0.05522901478159604
2.509000062942505,car (1).jpg,0.06204053009039522,0.07148081171283861,0.0663797189449929,-0.05508422018101456,0.06869656666476329,0.06921644588904928,0.06999808639265137,0.07067545600836944,0.0625626668408712,0.0710688243590384,0.060151852387410686,0.06935437850408298,0.06808839804987885,0.0709070871361598,0.06905819553830571,-0.05482163188715361
2.509000062942505,car (1).jpg,0.06210061157949109,0.07148101287853871,0.06637337104956759,-0.05480974075910339,0.06869670077523002,0.06920965095873487,0.06999010681988083,0.0706666717727985,0.06252066791303967,0.07107984376905487,0.06022507670224627,0.0693649732309548,0.06808372653528769,0.07090254973203537,0.06906492341338676,-0.05511209280635033
2.509000062942505,car (1).jpg,0.0621152072686204,0.07149386513160051,0.06638910667766412,-0.05506620467498358,0.0686839602808905,0.06922525247636467,0.07000550717181053,0.07068292149101751,0.06258314103879226,0.07108174366733357,0.060199908637989595,0.06936685077748904,0.06810051269537362,0.07091111045016175,0.06907214302684582,-0.05507633001522184
2.509000062942505,car (1).jpg,0.06203536683742605,0.07148090111981643,0.06637851195079231,-0.054900622952058664,0.06871485039172773,0.06921465774949286,0.06999694645368415,0.07067474075254687,0.06254409254122884,0.0710772733184425,0.060172103067887193,0.06936338625709847,0.06808866627081231,0.07091164689202868,0.06906393993663072,-0.054922862937791694
2.509000062942505,car (1).jpg,0.06215094770800444,0.07149744141071336,0.0663886149392861,-0.05487677364072485,0.06869053169376035,0.06922527482810913,0.07000414371539876,0.07068113335146109,0.06255314499773323,0.071091779600594,0.06025688323460617,0.0693757244200378,0.06809850103837264,0.07091077517399492,0.06907931793681597,-0.055252797037696484
2.509999990463257,car (1).jpg,0.06204522395673084,0.07149245697169983,0.06639228062537678,-0.0550637459830935,0.06871064826377013,0.06922826996186614,0.07000993281721268,0.07068781652305323,0.06257504970729943,0.07108098370802209,0.06017279597196531,0.06936685077748904,0.0680999762535067,0.07092005114794388,0.06907069016345622,-0.05484148023622992
2.509999990463257,car (1).jpg,0.06209978456494624,0.07149218875076636,0.06638523982587335,-0.05477643665986498,0.0687103129876033,0.06922214558388538,0.07000195324444214,0.0706797251915604,0.06253144145386713,0.07109155608314945,0.06024470153387803,0.06937659613807155,0.06809465653832633,0.07091560315079727,0.06907681454143698,-0.05511732311455287
2.509999990463257,car (1).jpg,0.06211431319884219,0.07150539863173945,0.06640140013711454,-0.055017142595904185,0.06869696899616348,0.06923772474977073,0.07001766652079422,0.07069445499115645,0.06259695441686564,0.07109341127793924,0.06022760244936972,0.06937842898111689,0.06811030275944505,0.07092291217123416,0.06908412356187386,-0.055094814907886376
2.509999990463257,car (1).jpg,0.06203020358445687,0.07149176406762171,0.06639049248582035,-0.05485817698933804,0.06872665211280013,0.06922654887754308,0.07000798821544507,0.07068531312767423,0.06256639958219523,0.07108894092904817,0.06020764234157113,0.06937538914387097,0.06809926099768412,0.070923739185779,0.06907665807922579,-0.054927579155871764
2.509999990463257,car (1).jpg,0.062149919527759494,0.07150928783527467,0.06640144484060345,-0.054832651297170076,0.0687029592636775,0.06923747888058172,0.07001675009927155,0.0706927339068334,0.06257554144567745,0.07110514594377827,0.060288488601265976,0.0693894260393889,0.06811054862863405,0.07092456620032385,0.06909346659105618,-0.05524872902020562
2.509999990463257,car (1).jpg,0.062046095674764594,0.07150470572766134,0.06640504347146076,-0.05503325820365646,0.0687221147086757,0.06924096575271675,0.07002233803538538,0.070699931168548,0.06259297580635259,0.07109274072560558,0.06019470068153151,0.06937896542298382,0.06811077214607861,0.07093314927019469,0.06908325184384011,-0.05485162792821263
2.509999990463257,car (1).jpg,0.06209965045447951,0.0715045716171946,0.06639780150625724,-0.05475576129624382,0.06872399225520995,0.06923450609856917,0.07001455962831493,0.0706914822091439,0.062554262584956,0.07110326839724403,0.06026823792078947,0.0693887778387997,0.06810543007915379,0.07092885773525927,0.06908977855322106,-0.05512637557105727
2.509999990463257,car (1).jpg,0.062109105242384104,0.07151702153885621,0.06641324656167585,-0.05500321745910853,0.06871015652539211,0.0692489453254873,0.07002864122732178,0.07070415564825006,0.06261792035316471,0.07110534710947837,0.06025402221131589,0.06939085655103404,0.06812132216946151,0.07093511622370675,0.06909693111144675,-0.055109589410971334
2.509999990463257,car (1).jpg,0.06202177697679722,0.0715045716171946,0.06640385882900462,-0.05484764931769959,0.06874100193274044,0.06923957994456052,0.07002059459931786,0.07069832184294722,0.06257864833815674,0.07110186023734334,0.06022755774588081,0.06938850961786623,0.06811028040770059,0.07093753021210793,0.06908968914624324,-0.05494858979565976
2.509999990463257,car (1).jpg,0.06213637437061958,0.07152120131506935,0.06641353713435377,-0.05481523928823939,0.06871692910396207,0.06925026407841016,0.07002801537847703,0.07070681550584024,0.06258624793127154,0.07111607594681692,0.060305386520074195,0.06940060191161655,0.06812015987874984,0.07093728434291892,0.06910477657375057,-0.05526386115120186
2.509999990463257,car (1).jpg,0.06204126769796225,0.0715153228062776,0.06641604052973277,-0.05501696378194854,0.06873400583672593,0.06925196281098876,0.07003250807911254,0.07071162113089813,0.06260933728329388,0.07110324604549957,0.060216203059697514,0.06938985072253355,0.06812038339619439,0.07094492863952263,0.0690944053643233,-0.0548664471347865
2.509999990463257,car (1).jpg,0.062094666015465975,0.0715134229079989,0.06640765862556203,-0.05473615881635652,0.06873405054021484,0.06924402794170713,0.07002253920108548,0.07070156284589324,0.06256183982632635,0.07111366195841574,0.060286208723331534,0.0693995290278827,0.06811446018391373,0.07094019006969811,0.06910023916962614,-0.05514079244623094
2.509999990463257,car (1).jpg,0.06211406732965318,0.07152871150120634,0.0664256294281041,-0.054977892932640667,0.06872131004587531,0.06926175287506019,0.0700398841547828,0.07071834900597918,0.06262149663227756,0.07111746175497315,0.060273959967370026,0.06940337352792901,0.06813164867539986,0.07094816964246865,0.06910886694298589,-0.05513795377468512
2.509999990463257,car (1).jpg,0.06203214818622448,0.07151328879753217,0.06641300069248685,-0.05483052788144682,0.06874911561597771,0.06924883356676502,0.07002911061395534,0.07070791074131855,0.06258917600979519,0.07111015273453626,0.06024693670832356,0.06939731620518162,0.06811817057349331,0.07094716381396816,0.06909869689925872,-0.05495902806032039
2.509999990463257,car (1).jpg,0.06215208764697166,0.07153215366985245,0.06642520474495944,-0.05479304400599527,0.06872765794130062,0.06926130584017108,0.0700392806576825,0.07071694084607849,0.06259796024536612,0.07112933053127891,0.06033147100585354,0.06941452704841221,0.06813265450390035,0.07095098596227002,0.06911890287624632,-0.05527968618627622
2.510999917984009,car (1).jpg,0.06205914909352649,0.07152915853609544,0.06643083738456218,-0.05500107169164082,0.06874674633106545,0.0692659997065067,0.07004699200951958,0.07072512158454913,0.0626248270422014,0.07111654533345048,0.060241214661743,0.06940341823141792,0.0681326321521559,0.07095836203794027,0.06910841990809678,-0.05488093106519354
2.510999917984009,car (1).jpg,0.06211306150115269,0.07152754921049466,0.06642319308795847,-0.054720065560348696,0.0687488250432998,0.06925916007270337,0.07003834188441538,0.07071729847398978,0.06258490682660423,0.07113049282199059,0.06030847106080903,0.06941640459494645,0.06813006170154354,0.07095782559607335,0.06911778528902356,-0.05514470400151062
2.510999917984009,car (1).jpg,0.06213422860315187,0.07154402244615822,0.0664418791463231,-0.05495902806032039,0.06873688921176066,0.069277600261879,0.07005620092823517,0.0707346434276871,0.06265033038262491,0.07113272799643612,0.06029570821472504,0.06941852801066971,0.06814626671627363,0.07096441936068766,0.06912542958562727,-0.05515022488239108
2.510999917984009,car (1).jpg,0.06204473221835282,0.07152846563201733,0.0664296750938505,-0.05481367466612752,0.06876491829930761,0.06926479271230611,0.07004645556765265,0.07072505452931577,0.06261579693744146,0.07112566484518824,0.060266248615532945,0.06941287301932252,0.06813316859402282,0.0709641511397542,0.06911528189364456,-0.054970047470336854
2.510999917984009,car (1).jpg,0.06216554339713375,0.0715445812397696,0.0664391298817551,-0.0547718769039961,0.06874073371180697,0.06927435925893298,0.07005302698052251,0.07073146947997444,0.06261894853340966,0.07114151223200706,0.060349195939206596,0.06942666404565144,0.06814349509996118,0.07096453111940994,0.06913164337058585,-0.055286369357868355
2.510999917984009,car (1).jpg,0.062066324003496647,0.07154172021647932,0.06644496368705793,-0.0549820280053649,0.06875986680506072,0.0692792989944576,0.07006009013177039,0.0707388902591336,0.06264525653663355,0.07112966580744574,0.06025876078114042,0.06941691868506893,0.06814510442556196,0.07097298007881404,0.0691222109344257,-0.05490200876021489
2.510999917984009,car (1).jpg,0.06211440260582001,0.07153771925422182,0.06643479364333077,-0.05469413753678054,0.06876017972948309,0.06926953128213063,0.0700493836461763,0.07072876491889535,0.06259822846629959,0.07113907589186143,0.060324050226694376,0.06942565821715095,0.06813797421908072,0.07096779447410041,0.06912719537343924,-0.05515923263540657
2.510999917984009,car (1).jpg,0.06214122469916638,0.07155367839976291,0.06645209389353918,-0.05493372588559698,0.0687459193165206,0.06928627273872766,0.07006570041962867,0.07074427702954733,0.06266389789150928,0.07114151223200706,0.06031066153176565,0.06942809455729658,0.06815411217857745,0.07097423177650354,0.06913510789097642,-0.05515384586499284
2.510999917984009,car (1).jpg,0.062046989744542806,0.07153778630945519,0.0664412309457339,-0.054794027482751306,0.06877544597094606,0.06927440396242189,0.0700557315416016,0.07073538103525412,0.06263817103364122,0.07113556666798194,0.060285582874486786,0.06942404889155017,0.06814264573367187,0.0709755505294264,0.0691262118966832,-0.054955094153296254
2.51200008392334,car (1).jpg,0.062173008879781826,0.07155421484162984,0.06645039516096057,-0.05475120154037494,0.06875190958403463,0.06928432813696005,0.07006234765796038,0.07074157246846824,0.06263193489693819,0.07115125759258957,0.06035912011374475,0.06943732582775662,0.068151832300643,0.07097557288117086,0.06914150048989064,-0.05529490772425028
2.51200008392334,car (1).jpg,0.06208031619552567,0.07155025858286125,0.06645470904764045,-0.05496892988311409,0.06876824870923146,0.06928830674747309,0.07006858379466341,0.07074937322728314,0.06265920402517366,0.07113827122906104,0.06026499691784345,0.0694256358654065,0.06815201111459865,0.07098361950917477,0.06913090576301882,-0.05489483385024474
2.51200008392334,car (1).jpg,0.062125578478047665,0.07154831398109364,0.06644675182661436,-0.05468095000755191,0.06877251789242242,0.06928108713401403,0.07005944193118119,0.07074067839869003,0.06262263657124478,0.0711509893716561,0.06034036700014675,0.06943766110392345,0.06814868070467481,0.07098174196264052,0.06913960059161194,-0.05515397997545957
2.51200008392334,car (1).jpg,0.06215523924293986,0.07156387079523453,0.06646445440822296,-0.05490672497829496,0.06875921860447151,0.06929764977665541,0.07007629514650049,0.07075587758491964,0.06268718840923171,0.07115333630482391,0.06033632133440034,0.06943985157488007,0.06816459514672699,0.07098724049177653,0.06914749075740466,-0.055179684481583176
2.51200008392334,car (1).jpg,0.062073901244866996,0.0715496327340165,0.06645383732960669,-0.05476237741260259,0.06878943816297509,0.06928640684919439,0.07006780148360747,0.07074787566040464,0.06265685709200586,0.0711484412727882,0.06030310664213975,0.06943640940623395,0.06815440275125537,0.07098952036971097,0.0691396676468453,-0.05498421847632152
2.51200008392334,car (1).jpg,0.062191426717213,0.07156851995808124,0.06646563905067909,-0.05470971670266589,0.06876878515109838,0.0692984544394558,0.07007647396045613,0.07075610110236419,0.06266175212404157,0.07116585328171889,0.060385875151857754,0.0694517427029303,0.0681663385827945,0.07099128615752294,0.06915770550462073,-0.055300987398742125
2.9860000610351562,car (1).jpg,0.06209877873644575,0.07156532365862413,0.06647098111760391,-0.05492999314427294,0.06878521368327303,0.06930281302962459,0.07008416296054876,0.07076488533793512,0.06269425156047959,0.071153291601335,0.060299016272904425,0.0694410362173362,0.0681673891147839,0.0709995563029714,0.06914793779229376,-0.054916805615044306
2.9860000610351562,car (1).jpg,0.062145002143979326,0.07156351316732325,0.06646271097215545,-0.05464851762634726,0.06878919229378608,0.06929498991906523,0.0700742387860106,0.07075420120408549,0.06265017392041372,0.07116453452879602,0.06036537860219224,0.06945163094420802,0.06816229291704809,0.07099609178258083,0.06915459861214145,-0.05517628701642597
