,Threshold,4/Pz,5/P7,6/P8,7/O1,8/O2,9/CP5,10/CP6,12/CP2,13/PO3,14/PO4,15/P3,16/P4
0,1,0.0198244505023,0.0192133522542,0.0186741260427,0.0189035517147,0.0199087652157,0.0188172670783,0.0189479151841,0.0179695268077,0.0179067907914,0.0184415042711,0.0190325615682,0.0186221240964
1,1,0.0434038637051,0.0420644488547,0.0408844692345,0.0413859942747,0.0435862402872,0.0411807125116,0.0414658546449,0.0393273252373,0.0391874435547,0.040361425816,0.0416509974237,0.0407523316047
2,1,0.0305482011092,0.0296054905259,0.0287739158369,0.0291268407385,0.030674608414,0.0289680421957,0.029168321424,0.0276657471947,0.0275663925021,0.0283956912511,0.0292986395024,0.028665531954
3,1,0.019522102306,0.0189233692745,0.018390420428,0.0186150678583,0.01960476991,0.0185175315098,0.0186469889739,0.0176838273424,0.0176230029393,0.0181520373809,0.0187306116567,0.0183246741838
4,1,0.0210876435284,0.020442654606,0.0198676105386,0.02010897642,0.0211786430816,0.0200115998177,0.0201518333842,0.0191090550837,0.0190445652404,0.0196135964346,0.0202425454426,0.0198035916378
5,1,0.0119985505429,0.0116328378468,0.0113028401126,0.0114419595644,0.0120488478237,0.0113862083817,0.0114651015667,0.0108719642933,0.0108366871743,0.0111601890022,0.011517383718,0.0112667286161
6,1,0.00797831532126,0.00773595907386,0.00751626186713,0.00760838104649,0.00801163514187,0.0075650272661,0.0076171630224,0.00722336896156,0.00719956556278,0.00741591971722,0.00765212642526,0.00748486348234
7,1,0.00599172930737,0.00581075594158,0.00564686842884,0.00571479271866,0.00601923799222,0.00569182647423,0.00573134982869,0.00543325896049,0.00541709055512,0.00557768906151,0.00575799040345,0.00563219032831
8,1,0.000271806693585,0.000264450085723,0.000256608128115,0.000259421511185,0.000273592311003,0.000259864369797,0.000260086227565,0.000246573990852,0.000247390416212,0.000254976825387,0.000262278579719,0.000255741874659
9,1,-0.00195581555368,-0.0018947797879,-0.00183927427567,-0.00186449936195,-0.00196174366481,-0.00185933904827,-0.00187340827827,-0.00177683514507,-0.00177059638542,-0.00182164958073,-0.00188118338179,-0.00184108943893
10,1,-0.00379396274419,-0.00367606476909,-0.00357095346668,-0.00361670572551,-0.0038063633817,-0.00359031464574,-0.00361567341442,-0.00343103272446,-0.00341724366368,-0.00351976747283,-0.00363156391882,-0.0035528994417
11,1,-0.00816444745371,-0.0079139761239,-0.00768934776322,-0.00778598053363,-0.00819808808658,-0.00775356142054,-0.0078085274416,-0.00740485230462,-0.00738027039338,-0.00759774176389,-0.00784359255805,-0.00767419903787
12,1,-0.00821192133932,-0.0079580251111,-0.00773247297599,-0.00782974925826,-0.00824363188954,-0.00778502878744,-0.00783900168171,-0.00743641841972,-0.0074096139058,-0.00763119200762,-0.00787414540437,-0.00770414210601
13,1,-0.0108201905293,-0.0104867182532,-0.0101922064171,-0.0103175952502,-0.0108648315145,-0.0102627568142,-0.0103350186944,-0.00980256774821,-0.00976760641353,-0.0100592568052,-0.0103811078217,-0.0101571462435
14,1,-0.0128895012629,-0.0124920843099,-0.0121412311477,-0.0122911187685,-0.0129433016596,-0.0122344179825,-0.0123208523704,-0.0116850737768,-0.0116448466864,-0.0119915785796,-0.0123753668857,-0.012109156776
15,1,-0.0121273324006,-0.0117523375814,-0.011424365177,-0.0115635948946,-0.0121777792747,-0.0114961612177,-0.011576818467,-0.0109810872632,-0.0109412933698,-0.0112699546299,-0.0116277363904,-0.0113775102282
16,1,-0.0154071879384,-0.0149324711777,-0.0145154467032,-0.0146921729846,-0.0154738048053,-0.0146230858056,-0.0147256098279,-0.0139650527837,-0.0139170639089,-0.014331652537,-0.0147909875564,-0.0144724605146
17,1,-0.0142204291961,-0.0137808527107,-0.0133959042836,-0.0135590106206,-0.0142795258347,-0.0134890191318,-0.013582014428,-0.0128825650537,-0.0128364147624,-0.0132213871845,-0.0136423943544,-0.0133485055648
18,1,-0.0153576260081,-0.0148842378963,-0.0144694444171,-0.0146441602698,-0.0154234945372,-0.0145704168472,-0.0146707876273,-0.0139143119737,-0.0138650787591,-0.0142803866179,-0.0147363178641,-0.0144185260548
19,1,-0.0163535745101,-0.0158503613616,-0.0154072995909,-0.0155946424359,-0.0164239384639,-0.0155207285193,-0.0156274322594,-0.0148206950253,-0.014769895619,-0.0152112265881,-0.0156972858295,-0.015358794495
20,1,-0.0147460366647,-0.0142927001332,-0.0138929815508,-0.0140622064861,-0.0148092964755,-0.0139872236739,-0.0140830354885,-0.0133566898671,-0.0133098784498,-0.0137096106838,-0.0141455158586,-0.0138402882501
21,1,-0.01669100703,-0.0161794130568,-0.0157265671291,-0.0159176134805,-0.0167643119371,-0.0158421502353,-0.0159518939788,-0.0151269860109,-0.0150749689353,-0.015525725568,-0.0160222562297,-0.0156766474641
22,1,-0.015004378861,-0.0145443340036,-0.0141365209782,-0.0143071719185,-0.0150680715785,-0.0142352840816,-0.0143330733553,-0.0135927907855,-0.0135451317274,-0.0139514220583,-0.0143963617164,-0.0140855512772
23,1,-0.0151959698499,-0.0147315053098,-0.0143172722054,-0.0144907480394,-0.0152613622804,-0.0144194691873,-0.0145181369842,-0.0137682444206,-0.0137206340066,-0.0141315101631,-0.0145831724078,-0.0142675819936
24,1,-0.0153442854378,-0.0148754256074,-0.014455999586,-0.0146324719822,-0.0154105711997,-0.0145639228438,-0.0146635880713,-0.0139060164742,-0.0138582500306,-0.0142728758466,-0.0147296320445,-0.0144107010413
25,1,-0.0135078301035,-0.0130945135076,-0.0127253395159,-0.0128798758339,-0.013565629237,-0.012816089595,-0.0129030007871,-0.0122372419962,-0.0121943194006,-0.0125606434674,-0.0129614265667,-0.0126805006898
26,1,-0.0143921202522,-0.0139520726402,-0.0135593504476,-0.013723768668,-0.014455286896,-0.0136587879702,-0.0137514971866,-0.0130414193893,-0.0129961961356,-0.0133856983703,-0.0138139937032,-0.0135145589159
27,1,-0.0126130944959,-0.0122268013411,-0.0118830353429,-0.0120267073442,-0.0126684024208,-0.0119678585524,-0.01204888154,-0.0114270627679,-0.0113869031153,-0.0117291003176,-0.0121034018757,-0.0118411134582
28,1,-0.0122241465374,-0.0118498501061,-0.0115174049318,-0.0116562860055,-0.012278909318,-0.0115993476417,-0.0116784168632,-0.0110754033733,-0.0110364550907,-0.011368635212,-0.0117308469825,-0.0114770572105
29,1,-0.011847745931,-0.0114848870542,-0.0111631584801,-0.0112980087555,-0.0119019299088,-0.0112428263214,-0.0113197710532,-0.0107346480291,-0.0106973236736,-0.0110192139672,-0.0113704907821,-0.011124533794
30,1,-0.0100752132196,-0.00976665542888,-0.00949254316925,-0.00960739210103,-0.010121032036,-0.00956028796794,-0.00962544493617,-0.00912762642364,-0.00909604872727,-0.00937035219948,-0.0096687118473,-0.0094590861814
31,1,-0.010238250678,-0.0099260134603,-0.00964652538521,-0.00976354044151,-0.0102845899968,-0.00971615838905,-0.00978276527321,-0.00927650650082,-0.00924467563905,-0.00952283130163,-0.00982693154726,-0.00961359942933
32,1,-0.00860189867839,-0.00833990183061,-0.00810378103979,-0.00820271719322,-0.00863971589442,-0.00816190431339,-0.0082180573049,-0.00779220086003,-0.00776583242739,-0.00799904499448,-0.00825528808997,-0.00807555359162
33,1,-0.00791128374305,-0.00767059976448,-0.00745257482721,-0.0075437278579,-0.007945081001,-0.00750658719108,-0.00755844758857,-0.00716633730547,-0.00714196332705,-0.00735696853464,-0.00759251736287,-0.00742687774521
34,1,-0.00728008762613,-0.007059323828,-0.00685877443545,-0.00694228654917,-0.00731198192591,-0.00690945282343,-0.00695758107866,-0.0065962348986,-0.00657430727098,-0.00677193132884,-0.00698910211394,-0.00683644006959
35,1,-0.00574268614925,-0.00556847067771,-0.0054093518415,-0.00547618971487,-0.00576763469707,-0.0054504207045,-0.00548876674724,-0.00520334049867,-0.005186739419,-0.0053424828427,-0.00551390606132,-0.00539315571134
36,1,-0.00547293878976,-0.0053065857882,-0.00515525937363,-0.00521956185657,-0.00549684090538,-0.00519144696411,-0.0052281668577,-0.00495672638821,-0.00494041459094,-0.00508931482672,-0.00525217690419,-0.00513709799293
37,1,-0.00411373586681,-0.00398869662638,-0.003874466219,-0.0039236331159,-0.00413112452518,-0.00390384619232,-0.00393190189089,-0.00372715111811,-0.00371565315333,-0.00382686236507,-0.00395014550978,-0.00386327672829
38,1,-0.00332872700439,-0.00322696207238,-0.0031344057716,-0.00317398357353,-0.00334156272908,-0.00315578422463,-0.00317913474661,-0.0030135149022,-0.00300377624696,-0.00309465405173,-0.00319351108534,-0.00312334227731
39,1,-0.0026311997653,-0.0025506014979,-0.00247861749065,-0.00250923150161,-0.00264279612806,-0.00249443432113,-0.00251357126837,-0.00238206947942,-0.00237445462445,-0.00244672160854,-0.00252477425552,-0.00246928975158
40,1,-0.00141463925151,-0.00137081684784,-0.00133206419463,-0.00134955275088,-0.00142092757017,-0.00134385187808,-0.00135435149462,-0.00128255999245,-0.00127946509673,-0.00131809203108,-0.00136047066644,-0.00133018454594
41,1,-0.000929656510037,-0.000900345448622,-0.000875183035956,-0.000886334923029,-0.000932976157504,-0.000878999700193,-0.000885216637823,-0.000838679707768,-0.000835891669796,-0.000862488195068,-0.000889438589519,-0.000869081302293
42,1,9.11439159415e-05,8.93046147881e-05,8.67720465446e-05,8.75756367705e-05,9.21137513294e-05,8.48929642819e-05,8.6071736142e-05,8.2686185605e-05,8.15190961998e-05,8.35019975322e-05,8.55118279563e-05,8.50980625492e-05
43,1,0.00083393397222,0.000809712259833,0.000787595926756,0.00079671741999,0.000839428994286,0.00079219953499,0.000799061674313,0.000758258632878,0.000755113002644,0.000777024304476,0.000801589684984,0.000785768920002
44,1,0.00146982949509,0.00142540894752,0.00138563519282,0.00140309064104,0.00147716186867,0.00139594137847,0.00140681564548,0.00133472176746,0.0013300898068,0.00136876134863,0.00141224963897,0.00138304275396
45,1,0.00233333838495,0.00226214576606,0.00219905223809,0.00222597586228,0.00234313153941,0.00221041153627,0.00222697511622,0.00211289668471,0.00210465175225,0.00216703547675,0.00223599256058,0.00218864810984
46,1,0.00288143954375,0.00279322296059,0.00271490060312,0.00274802029563,0.00289245378016,0.00273563856803,0.00275630635322,0.0026141253053,0.00260463697852,0.00268097991791,0.00276757960787,0.00270874617442
47,1,0.00354842422302,0.00343926240613,0.00334285881942,0.00338335737527,0.00356059048075,0.0033639618377,0.00338880941894,0.00321473550206,0.00320200189223,0.00329751468978,0.00340245801763,0.00333017171783
48,1,0.00416661871884,0.00403842168748,0.00392601159274,0.00397303236068,0.00418208201609,0.00395402254647,0.00398345281513,0.00377782038366,0.00376341744205,0.00387519890499,0.00399918757603,0.00391462746361
49,1,0.00466756810747,0.0045231813849,0.00439836968153,0.00445038731402,0.00468576422587,0.00442936965005,0.00446173780612,0.00423110183811,0.00421523179263,0.00434093209388,0.00447921801508,0.00438468193886
50,1,0.00518292782362,0.00502255010957,0.00488552633515,0.00494190301321,0.00520526924947,0.00491355415248,0.00494876664224,0.0046933755358,0.00467493991707,0.00481608030366,0.00496841624538,0.00486320050355
51,1,0.00569136743436,0.00551520184684,0.00536444312883,0.0054277843618,0.00571807029109,0.00540345243528,0.00544203969206,0.00516059199933,0.00514180802637,0.00529539447098,0.00546435907336,0.00534828045773
52,1,0.00602537178253,0.00583884540661,0.00567895940914,0.00574695781583,0.00605414216236,0.00571609902582,0.00575603611801,0.00545967614048,0.00543959475749,0.00560253215989,0.00578052359328,0.00565684636889
53,1,0.00648034884882,0.00628091280227,0.00610761732964,0.00618165179683,0.00651255911236,0.00614992272977,0.00619300465342,0.00587357056381,0.00585314108108,0.00602754240783,0.00622019297501,0.0060863338757
54,1,0.00681258156312,0.00660303801527,0.00641855213745,0.00649872016443,0.00684554698955,0.00646611418968,0.00651104502649,0.00617508970688,0.00615429170747,0.00633732841863,0.00654008004775,0.0063988648043
55,1,0.00701992666067,0.00680475593843,0.00661375795415,0.0066961788661,0.00705240260895,0.00665855041752,0.00670452327938,0.00635898388885,0.00633654674872,0.00652601193884,0.00673444966854,0.0065885200475
56,1,0.00743823347685,0.00721095143971,0.00700698146768,0.00709480946849,0.00747198487847,0.00706082460787,0.00711017625349,0.00674251173771,0.00671956646829,0.00691924532055,0.00714181501563,0.00698705366358
57,1,0.00748055298887,0.00725154938465,0.00704594983674,0.00713433617837,0.00751337019318,0.00709694334453,0.00714619180458,0.00677717754229,0.00675361412827,0.00695548157104,0.00717815152835,0.007022304134
58,1,0.0077623675502,0.00752556173624,0.00731174996074,0.00740274249636,0.00779594853625,0.00736686132873,0.00741750628511,0.0070335575618,0.00700991304344,0.00721923291975,0.00745122734909,0.00728903720526
59,1,0.00792446195416,0.0076830046285,0.00746325520618,0.00755671081213,0.00795768942646,0.00752160885651,0.00757163922143,0.00717972894426,0.00715587928892,0.00736981443857,0.00760678107651,0.00744085009856
60,1,0.00787210603296,0.00763253067546,0.00741446883205,0.00750645954141,0.0079050158919,0.00746953225621,0.00751767515015,0.00712926216057,0.00710481202573,0.00731834909562,0.00755311240797,0.0073880521057
61,1,0.00817380239357,0.00792527949207,0.00769924845926,0.007794578935,0.00820879201741,0.00776276183605,0.00781247609195,0.00740811860612,0.0073836557576,0.00760435372299,0.00784945911003,0.00767835752029
62,1,0.00798452400974,0.00774148957179,0.00752158141649,0.00761413781209,0.00801906163455,0.00757894466976,0.00762650792571,0.00723283611185,0.00720771508429,0.00742463247746,0.00766246369245,0.00749586841294
63,1,0.00810522477944,0.00785928782828,0.00763714960312,0.00772991429449,0.00814200482848,0.00769552695799,0.00774409115222,0.00734364962269,0.0073181950686,0.00753833360622,0.00778008734829,0.0076114869761
64,1,0.00811264125035,0.00786626775888,0.00764375604681,0.00773677939732,0.0081486210706,0.0077034744249,0.00775238659995,0.00735075158596,0.00732583788196,0.00754594963718,0.00778763970616,0.00761914230464
65,1,0.00786254156688,0.00762419960962,0.00740872657451,0.00749902333533,0.00789806874227,0.00746268495295,0.00751018882944,0.00712099601422,0.00709641982991,0.007310419424,0.00754367898353,0.00738033313808
66,1,0.0080449596808,0.00780160918712,0.0075812515512,0.00767386461693,0.00808374560471,0.00764257029606,0.00769157960255,0.00729264490459,0.00726790958138,0.00748573787174,0.00772591365189,0.00755872760293
67,1,0.00768435199886,0.00745097876309,0.00724049400133,0.00732887230887,0.00771921443653,0.00729564369607,0.00734202279471,0.00696256250525,0.0069377703187,0.007146443059,0.00737492003215,0.00721513180606
68,1,0.00767396320057,0.00744106641942,0.00723126580571,0.00731974796051,0.00770940621087,0.00728649635938,0.00733383021401,0.00695449157196,0.00692960034963,0.00713834381447,0.00736619497474,0.00720715071651
69,1,0.00755773892621,0.00732687188888,0.00712158627393,0.00720817051229,0.00759404301919,0.00717659456341,0.00722394392477,0.00685042082062,0.00682517599886,0.00703154694544,0.00725496514221,0.00709910718796
70,1,0.00717245775293,0.00695227768126,0.0067588014508,0.00683938279859,0.0072054523111,0.00680542113518,0.00685070027765,0.00649702745385,0.00647194874009,0.00666811233963,0.00687976051643,0.00673177365451
71,1,0.00725209324329,0.00703019002421,0.00683421255072,0.00691573602876,0.00728536045557,0.00688673852728,0.00693381315647,0.00657548897914,0.00655106181737,0.00674808363463,0.00696322466108,0.00681374148267
72,1,0.00677986053586,0.00657086027855,0.006388056072,0.00646417435553,0.00680992438913,0.00643394381457,0.00647881494556,0.00614501228935,0.00612150140205,0.00630597653771,0.00650612498809,0.00636632962068
73,1,0.00667221235097,0.00646666597913,0.00628604989993,0.00636146802408,0.00669999835051,0.00632975846968,0.00637509400766,0.00604601385702,0.00602353144223,0.00620343234085,0.00640222873463,0.00626384226163
74,1,0.00646706402932,0.00626778099553,0.00609121544468,0.00616522853614,0.00649171362678,0.0061354625285,0.0061802671765,0.00586099124285,0.00583977616274,0.00601384873541,0.00620645294131,0.00607231149714
75,1,0.00600083809254,0.00581489132621,0.00565189398707,0.00571963422287,0.0060229247562,0.00568958343931,0.0057316719477,0.00543587518416,0.00541548719086,0.00557806180933,0.00575567893301,0.00563122528603
76,1,0.00599844210007,0.0058135097983,0.00565053025521,0.00571819036122,0.00602125010667,0.00569151032944,0.00573374789899,0.00543716021654,0.0054175613071,0.00557882423628,0.0057580300934,0.0056334524087
77,1,0.00546605266622,0.00529682143367,0.00514864638586,0.00521006378392,0.00548648712642,0.00518230957334,0.0052207115035,0.00495138010222,0.00493301046491,0.00508032767742,0.0052428670235,0.00512944355893
78,1,0.00528996983615,0.00512563925773,0.00498340512297,0.00504231737905,0.00531127982196,0.00501578966592,0.00505329334942,0.0047926383548,0.00477527859045,0.00491768004615,0.00507518181298,0.00496527693725
79,1,0.00502831829696,0.00487141689348,0.00473608976939,0.00479335613039,0.00504885143949,0.0047670352942,0.00480299360019,0.00455555389924,0.00453974288713,0.00467463139166,0.00482418872269,0.00471972765145
80,1,0.00452962687572,0.00438727227714,0.0042663146489,0.00431802668824,0.00454883155462,0.00429094327991,0.00432401878479,0.0041016439733,0.00408685567221,0.00420904622516,0.00434297023242,0.0042489230176
81,1,0.00447015610773,0.00433032206893,0.00421093409535,0.00426154652405,0.00448999687936,0.00424018140888,0.00427324509436,0.00405293590721,0.00403897306782,0.00415906574378,0.00429239479189,0.00419926884138
82,1,0.00392745446494,0.00380451856311,0.00369870489907,0.00374371063438,0.00394324272893,0.00372054167748,0.00374928419026,0.00355646867416,0.00354437075105,0.00364978396136,0.00376686631653,0.00368440221953
83,1,0.00371834626709,0.00360284136125,0.00350168529187,0.0035450218053,0.0037335430929,0.00352356770149,0.00355022382043,0.00336695968318,0.00335664811441,0.00345591939833,0.00356766267085,0.0034887602321
84,1,0.00343396758468,0.00332736418637,0.00323270502135,0.00327337286901,0.0034475725961,0.00325644548439,0.003280288192,0.00311053966393,0.00310180386573,0.00319347287882,0.00329703548499,0.00322368874234
85,1,0.00294604239658,0.00285440112032,0.00277316980748,0.00280734518589,0.00295725262127,0.00279104309226,0.00281082040838,0.00266539961034,0.00265751854805,0.00273725433438,0.00282538664692,0.00276234676704
86,1,0.00285484848602,0.00276687822228,0.00268879840937,0.00272127917445,0.0028673985719,0.00270851942757,0.0027274075967,0.00258567665398,0.00257835442191,0.00265578765968,0.00274119449844,0.00268068526629
87,1,0.00233524884404,0.00226274273964,0.00219961946371,0.00222589313412,0.00234526417724,0.00221345320818,0.0022287215506,0.0021127773381,0.00210648489258,0.00217073031325,0.00223950103469,0.0021905956641
88,1,0.00212034204814,0.00205484571564,0.0019982837666,0.00202145315022,0.00212950388899,0.00201095134172,0.00202514571542,0.00191914378541,0.00191365504207,0.00197235527166,0.00203440563085,0.00199040047283
89,1,0.00184260563515,0.00178544010465,0.0017359669439,0.00175667526962,0.00184960247162,0.00174747613598,0.00175991776472,0.00166766766633,0.00166332047483,0.00171424257161,0.00176786785308,0.0017297758031
90,1,0.00139297488476,0.00134941176188,0.00131139256115,0.00132762364945,0.00139649688658,0.00131828241129,0.00132774780167,0.00125810163276,0.00125500076365,0.00129379594288,0.00133397248946,0.00130477669844
91,1,0.00128935630141,0.00124994260596,0.00121381259137,0.0012294420015,0.00129334095119,0.00122336524915,0.00123262674131,0.00116752279462,0.00116545532231,0.00120109204745,0.00123881605592,0.00121131966079
92,1,0.00082493547331,0.000799270306809,0.000775076483869,0.000786005707245,0.000827002545292,0.000779989269325,0.000786006732597,0.000744384210255,0.000743548902211,0.000767176372843,0.000790559631176,0.000772471748502
93,1,0.00062755336944,0.000608463955332,0.000589043691492,0.000597427473385,0.000628701794482,0.000593336955944,0.000597588418288,0.000565479064772,0.000565320625958,0.000583419011379,0.000601678596499,0.000587052519093
94,1,0.000373995092742,0.000363160716461,0.000349635379271,0.00035532515122,0.000373651342688,0.000354441534123,0.000356517900552,0.000336881044565,0.000337821987706,0.000348912379762,0.000359879496804,0.00035010992024
95,1,-1.43209277978e-05,-1.27862643151e-05,-1.58957643223e-05,-1.4485636728e-05,-1.57101567367e-05,-1.59511637383e-05,-1.69423869854e-05,-1.71700006538e-05,-1.49820868079e-05,-1.40220030048e-05,-1.51315795596e-05,-1.6850510776e-05
96,1,-0.000110635946708,-0.000104737429758,-0.000104307560452,-0.000105425939411,-0.0001105514442,-0.000103859945981,-0.000104809347812,-0.000101273904752,-9.84701909341e-05,-0.000100210528731,-0.000103792879287,-0.000103366130296
97,1,-0.000505939839246,-0.000488197865959,-0.000475968869841,-0.000483362905955,-0.000507516297187,-0.000481137717489,-0.000483854471579,-0.000460653028047,-0.000456646443583,-0.000469005884477,-0.000484555241587,-0.000476066192621
98,1,-0.000673395758461,-0.000650182683021,-0.000633451256233,-0.000643013732551,-0.000675501495829,-0.000641035873878,-0.000645045490025,-0.000613309118289,-0.00060821713678,-0.000626095820985,-0.000645706653141,-0.000634522420617
99,1,-0.000886348731612,-0.000856193013333,-0.000834711234811,-0.000845838757502,-0.000890061622455,-0.000839104381671,-0.000845076382305,-0.000802610197674,-0.000796185800248,-0.000820498164094,-0.000845960538125,-0.000830940219975
100,1,-0.00119839033555,-0.00115875071068,-0.00112879178609,-0.00114315960632,-0.00120338103311,-0.00113676931951,-0.00114505444867,-0.00108676620874,-0.00107923915692,-0.00111176578207,-0.00114701037172,-0.00112558630237
101,1,-0.00127385778282,-0.00123107057041,-0.00119851816548,-0.00121418872234,-0.0012772486002,-0.00120836615326,-0.00121721452074,-0.00115569967354,-0.00114776500696,-0.00118233307854,-0.00121974182173,-0.00119670421595
102,1,-0.00159068008477,-0.00153808887945,-0.00149675174031,-0.00151656951208,-0.00159557768241,-0.00150818608144,-0.00151955639647,-0.00144239191416,-0.00143366095763,-0.00147658529192,-0.00152373965217,-0.00149395786407
103,1,-0.00171579179959,-0.00165944066135,-0.00161455929681,-0.00163594588425,-0.00172170120638,-0.00162644463125,-0.00163936489821,-0.00155580829784,-0.00154725709815,-0.00159362240012,-0.00164410427071,-0.00161157719983
104,1,-0.00187962649426,-0.00181904228187,-0.00176998602135,-0.00179263634542,-0.00188720198446,-0.00178158127458,-0.00179620099725,-0.00170426540262,-0.00169592166779,-0.00174664735052,-0.00180194892228,-0.00176578141977
105,1,-0.00211700550957,-0.00205001998372,-0.00199487082358,-0.00201958172944,-0.00212660563534,-0.00200688936606,-0.00202335544052,-0.00191947939016,-0.00191091024526,-0.00196778578872,-0.00203073821535,-0.0019889775567
106,1,-0.00216387665449,-0.00209543253825,-0.00203904440087,-0.00206379175483,-0.00217355347548,-0.0020499760102,-0.00206701233006,-0.00196098844639,-0.00195263495802,-0.00201083169973,-0.00207496244589,-0.00203176227074
107,1,-0.00239620189493,-0.00232126099009,-0.00225858485557,-0.00228599833072,-0.00240787411658,-0.00227091999461,-0.00228991292981,-0.0021720024417,-0.00216390319784,-0.00222800210537,-0.00229902573688,-0.00225085689406
108,1,-0.00247508960644,-0.00239803776075,-0.00233336220461,-0.00236165478722,-0.00248786067215,-0.002345314138,-0.00236535322219,-0.00224329728646,-0.00223559732587,-0.00230133563447,-0.00237489408264,-0.00232485518216
109,1,-0.0025846720302,-0.00250489031951,-0.00243679328872,-0.00246584821861,-0.00259791640451,-0.00245015258102,-0.00247134834135,-0.0023438355784,-0.00233589170027,-0.00240409706225,-0.00248141756907,-0.00242878709432
110,1,-0.00274649795658,-0.00266237225036,-0.00258909822068,-0.00261989690723,-0.0027596532058,-0.00260424996236,-0.00262667028601,-0.00249084789872,-0.00248299354885,-0.00255512691848,-0.0026375722217,-0.0025810900014
111,1,-0.00276501576832,-0.00268039670435,-0.00260603403174,-0.00263693034622,-0.00277748497019,-0.00262046812198,-0.00264314641193,-0.00250628295253,-0.00249885259526,-0.00257128799916,-0.00265430847505,-0.00259685533821
112,1,-0.00292003177902,-0.00283145571602,-0.00275190763369,-0.00278497356807,-0.00293290905628,-0.00276763840178,-0.00279111929132,-0.00264668271586,-0.00263917659572,-0.00271522968073,-0.00280348468414,-0.00274212631235
113,1,-0.00295484722457,-0.00286532632491,-0.00278415238495,-0.00281791207521,-0.00296708983359,-0.00280002449414,-0.00282341437997,-0.00267716792182,-0.00267003825885,-0.0027470165522,-0.00283640395877,-0.0027738977889
114,1,-0.00301314569035,-0.00292232386068,-0.00283924723202,-0.00287325728655,-0.00302606715103,-0.00285758984473,-0.00288121594643,-0.00273164655309,-0.00272442874754,-0.00280323682379,-0.00289442318058,-0.00283055522962
115,1,-0.00310511397813,-0.00301191075745,-0.00292607795348,-0.00296071467888,-0.00311806776754,-0.00294538525514,-0.00296883947735,-0.0028147129543,-0.00280707574494,-0.00288825611272,-0.00298256405739,-0.00291647893793
116,1,-0.00309313798558,-0.00300014030749,-0.00291457103669,-0.00294863810358,-0.0031047448634,-0.00293304066849,-0.00295555598281,-0.00280220132359,-0.002794614545,-0.00287565700335,-0.00296948044351,-0.00290349640101
117,1,-0.00317557756635,-0.00308070843744,-0.00299298534735,-0.00302795918279,-0.00318856215456,-0.00301286530047,-0.00303557093812,-0.00287783342518,-0.00287035186932,-0.00295400295199,-0.00304990939319,-0.00298228418063
118,1,-0.00317092207321,-0.00307569933037,-0.00298863457103,-0.00302343491583,-0.00318481182142,-0.00300827940106,-0.00303043350309,-0.00287291306526,-0.00286578705034,-0.00294956766063,-0.00304501910618,-0.00297739018637
119,1,-0.0031853854218,-0.00308979135214,-0.00300238766344,-0.00303735436478,-0.00319894319197,-0.00302333398827,-0.00304499568541,-0.00288718827703,-0.00287979636069,-0.00296375354853,-0.0030599729019,-0.00299175058271
120,1,-0.00321607272314,-0.00311979101148,-0.00303122289135,-0.00306676915608,-0.00322892258964,-0.00305193474914,-0.00307348040883,-0.00291459479638,-0.00290659698453,-0.00299156970969,-0.00308861111537,-0.00301981889619
121,1,-0.00317655396988,-0.00308039146823,-0.00299329831031,-0.00302838102127,-0.00318935561409,-0.00301284723247,-0.00303403678713,-0.00287714487641,-0.00286943481106,-0.00295391663777,-0.00304892825721,-0.00298133018179
122,1,-0.0031981449833,-0.0031016662702,-0.00301470389612,-0.00305000818266,-0.00321269710963,-0.00303492966363,-0.00305634564235,-0.00289785362845,-0.00289033060338,-0.00297576050283,-0.00307094343945,-0.00300311390667
123,1,-0.00315810195668,-0.00306235347544,-0.00297730323734,-0.00301089995063,-0.00317283104397,-0.00299655390814,-0.00301795266771,-0.00286111423732,-0.00285337979548,-0.0029382323336,-0.00303177197409,-0.00296518496146
124,1,-0.00313321465962,-0.00303797334383,-0.00295360389229,-0.00298623229837,-0.00314730799429,-0.00297356287142,-0.00299457405054,-0.00283908517438,-0.00283153596394,-0.00291527608065,-0.00300847706521,-0.00294235032234
125,1,-0.00311357919837,-0.00302016741043,-0.0029349296224,-0.00296892202129,-0.00312687045566,-0.00295574773313,-0.00297565379035,-0.00282125339029,-0.00281427982466,-0.00289671161629,-0.00299018604293,-0.00292373890963
126,1,-0.00305169214305,-0.00295989699216,-0.00287564536224,-0.00290940407744,-0.00306418939016,-0.00289583711776,-0.00291471272762,-0.00276330932221,-0.00275676536408,-0.00283789169034,-0.00292916030397,-0.00286386031133
127,1,-0.00302463016354,-0.00293415527864,-0.00285079465597,-0.00288372184796,-0.00303821661802,-0.00287152487216,-0.00288980919945,-0.00273954325354,-0.00273316788371,-0.00281389694559,-0.00290410685269,-0.00283932193021
128,1,-0.00295798342729,-0.00287027708552,-0.00278874772115,-0.00282113933112,-0.00297209886643,-0.00281002887117,-0.00282734817403,-0.00268020559982,-0.00267396234924,-0.00275304819658,-0.00284144137195,-0.0027778457694
129,1,-0.00290337335789,-0.00281673378991,-0.0027371071905,-0.00276876582524,-0.00291736609413,-0.00275792170049,-0.00277454734071,-0.00263002739766,-0.00262391802614,-0.00270203064048,-0.00278828759043,-0.00272608040542
130,1,-0.00284483657135,-0.0027601124959,-0.00268240923187,-0.00271317743604,-0.00285982803281,-0.00270234507721,-0.00271807957832,-0.00257639248079,-0.0025703789323,-0.00264728017188,-0.00273141976475,-0.00267059023104
131,1,-0.00276561218692,-0.00268355233289,-0.00260798173745,-0.0026377557493,-0.00278090830879,-0.00262837983157,-0.00264322554693,-0.00250551858904,-0.00249919910527,-0.00257445012722,-0.00265617458184,-0.00259705763283
132,1,-0.00270390522009,-0.00262338852403,-0.00254955973995,-0.00257873244639,-0.00271860281891,-0.00257021768349,-0.00258447575711,-0.00245014526857,-0.00244351015658,-0.00251763093684,-0.0025971905349,-0.00253946418396
133,1,-0.00262021571822,-0.0025422540245,-0.00247052168262,-0.00249942910789,-0.00263487748583,-0.00249020193156,-0.00250376469538,-0.00237372573868,-0.00236715689927,-0.00243927839936,-0.00251619759933,-0.00246020154528
134,1,-0.00254234149547,-0.00246613645728,-0.00239607172581,-0.00242425216715,-0.00255573598353,-0.00241511511827,-0.00242834503415,-0.0023021245309,-0.00229534210651,-0.0023657267921,-0.0024403203481,-0.00238609823269
135,1,-0.00245724993077,-0.00238335067892,-0.00231526413617,-0.00234200817522,-0.00246923438289,-0.00233467962554,-0.0023474824131,-0.00222547138217,-0.00221862980672,-0.00228688159052,-0.00235899062051,-0.00230648982342
136,1,-0.00236984382414,-0.00229967061355,-0.00223343619775,-0.00225988566447,-0.00238201588627,-0.00225261430899,-0.00226479131926,-0.00214682836493,-0.00214061440089,-0.00220618018114,-0.0022759189489,-0.00222498512343
137,1,-0.00228165486824,-0.00221438963755,-0.00214979260906,-0.00217629038725,-0.00229286928505,-0.00216760447714,-0.00217931955318,-0.00206547941582,-0.0020594409882,-0.00212286839733,-0.0021898123525,-0.00214091640488
138,1,-0.00218558775636,-0.00212120874331,-0.00205895459067,-0.00208443907005,-0.00219550958,-0.00207673567075,-0.00208824687185,-0.00197910461705,-0.00197269497384,-0.00203400165363,-0.00209795343921,-0.00205136635787
139,1,-0.0020952779004,-0.00203344021309,-0.00197393187352,-0.00199844856472,-0.00210447734569,-0.00199099965384,-0.00200256902222,-0.00189776099281,-0.00189149821608,-0.00195016163312,-0.00201170023608,-0.0019671705979
140,1,-0.00199418812798,-0.00193495752033,-0.00187816750994,-0.00190162697887,-0.00200215657695,-0.00189439990291,-0.00190521317916,-0.00180548439212,-0.00179963852577,-0.00185525977521,-0.0019142131551,-0.00187159687407
141,1,-0.00190285585854,-0.001846681753,-0.00179172500016,-0.00181455385538,-0.00190958772389,-0.00180877456251,-0.00181833339071,-0.00172334153282,-0.00171786272328,-0.00177073207532,-0.0018273315586,-0.00178630460118
142,1,-0.00180253528517,-0.00174949644048,-0.00169719723217,-0.00171949220182,-0.00180958179395,-0.00171326859532,-0.00172223917597,-0.00163238970356,-0.001627229798,-0.00167753616576,-0.00173073718262,-0.00169217375822
143,1,-0.0017028543944,-0.00165254159378,-0.00160372022768,-0.00162461868452,-0.00171079343446,-0.00161679591757,-0.00162540097774,-0.00154052810442,-0.00153525996229,-0.00158311392625,-0.00163331352488,-0.00159699327949
144,1,-0.00160448881118,-0.00155666807041,-0.00151051519904,-0.00153016830856,-0.00161063616653,-0.00152439342111,-0.00153229409625,-0.00145234434855,-0.00144704039756,-0.00149191785071,-0.00153985991156,-0.00150532456969
145,1,-0.00149915917917,-0.0014539815044,-0.00141063640681,-0.00142944105663,-0.00150422060297,-0.00142616157598,-0.00143303777879,-0.00135891951591,-0.00135379312484,-0.00139587280047,-0.0014404742516,-0.00140831944304
146,1,-0.00141138111564,-0.00136834314511,-0.00132797511752,-0.00134584829101,-0.00141718955724,-0.00134109789282,-0.00134696037767,-0.00127764884754,-0.00127237628769,-0.00131239725075,-0.00135417289284,-0.00132390833901
147,1,-0.00130456301966,-0.00126470292287,-0.00122724879681,-0.00124373023921,-0.00130949459214,-0.00123987661098,-0.00124488000957,-0.00118093154726,-0.00117578414402,-0.00121280686873,-0.00125153349806,-0.00122341459224
148,1,-0.00120920158974,-0.00117239991305,-0.0011375946111,-0.00115276113603,-0.00121393734488,-0.00114978907672,-0.00115455377925,-0.00109537429889,-0.00109068948676,-0.00112512882409,-0.00116058404156,-0.00113487221489
149,1,-0.0011149522551,-0.00108033498628,-0.00104828743828,-0.00106278319456,-0.00111914905192,-0.00105914830001,-0.00106377399909,-0.00100912326265,-0.00100477364195,-0.00103677384324,-0.00106915415588,-0.00104580817344
150,1,-0.0010110665001,-0.000979070716393,-0.000950139842474,-0.000963575682419,-0.00101365813987,-0.000961087850521,-0.000964863693365,-0.000915459507901,-0.000911370116187,-0.000940448824513,-0.000969769746455,-0.000948737409623
151,1,-0.000927917772499,-0.000898676401519,-0.000872535960104,-0.000884344793203,-0.000930311788634,-0.00088197748341,-0.000885002989428,-0.00083976821649,-0.000835636450338,-0.000862642662167,-0.000889414626752,-0.000870121186133
152,1,-0.000822350773773,-0.000796140640505,-0.00077328554264,-0.000783494799781,-0.000824458430093,-0.000780545176414,-0.000783047876099,-0.000742734787507,-0.000738729220655,-0.000763309332056,-0.000786706127102,-0.00076973150237
153,1,-0.000733766963268,-0.000709774352878,-0.000690064990906,-0.000698888738327,-0.000735810109283,-0.000696660699643,-0.000698697700202,-0.000662671993965,-0.00065893904055,-0.000681096791374,-0.000701859816166,-0.000687044972907
154,1,-0.000646478999445,-0.000624475299036,-0.000607617367413,-0.000615042618186,-0.000648003950916,-0.000615470296109,-0.00061710395895,-0.000585626209549,-0.000581907383045,-0.000601305815769,-0.000619941520578,-0.000607011442373
155,1,-0.000550823820517,-0.000531176556935,-0.00051712210335,-0.000523528195706,-0.000551653788098,-0.000524251638495,-0.00052548055609,-0.000498957215863,-0.000495394696035,-0.000512108289355,-0.000527904630761,-0.00051701403456
156,1,-0.000477833312616,-0.000460614049063,-0.000448764342649,-0.00045440292878,-0.000478965417009,-0.000452642423404,-0.000453380325352,-0.000430714016332,-0.00042743950086,-0.000442186416621,-0.000455649796503,-0.000446283840005
157,1,-0.000380951990104,-0.000366554061644,-0.000357264939805,-0.000361955505911,-0.000381980113303,-0.000361069927776,-0.000361268896332,-0.000343527775995,-0.00034056544899,-0.000352774549811,-0.000363196068336,-0.000355789765124
158,1,-0.000304547258196,-0.000292203475801,-0.000285397337042,-0.000289183179036,-0.000305921181412,-0.000289932793173,-0.00028997143504,-0.000275825209524,-0.000272981350136,-0.000283362857973,-0.000291210609174,-0.000285563251078
159,1,-0.000228381841815,-0.000218535294971,-0.000214505472494,-0.000216633973828,-0.0002302590586,-0.00021773905659,-0.000217462542275,-0.00020687972133,-0.000204353473567,-0.00021264554387,-0.000218231482383,-0.000214181509447
160,1,-0.000144816816883,-0.000137761822575,-0.000135867855948,-0.000137324061192,-0.000146306816004,-0.000138789954944,-0.000137844346431,-0.000131412239484,-0.000129460983213,-0.000135363777036,-0.000138255155396,-0.000135881044952
161,1,-8.53937229217e-05,-8.04731090161e-05,-7.97464701278e-05,-8.0999871693e-05,-8.61602611475e-05,-8.16878152466e-05,-8.02695682948e-05,-7.68495354186e-05,-7.52080884616e-05,-7.94126446388e-05,-8.03207782649e-05,-7.93161384271e-05
162,1,-2.34501823548e-06,-2.05308508315e-07,-1.74314265144e-06,-1.46602109521e-06,-3.1769518795e-06,-2.08026727729e-06,-3.71004535141e-07,-9.46808307597e-07,3.06687231662e-07,-1.78101001263e-06,-1.09941545717e-07,-9.50640266353e-07
163,1,6.01761033005e-05,6.01752884468e-05,5.7203918775e-05,5.78077060281e-05,5.93799292663e-05,5.65814195422e-05,5.83836629343e-05,5.48643766056e-05,5.58549303002e-05,5.54200219287e-05,5.89732915744e-05,5.6785105614e-05
164,1,0.000124405188604,0.000122383997612,0.000118233624691,0.000118842088402,0.000124585076585,0.000117675375897,0.00011971908861,0.000112945338296,0.000113861856859,0.0001153838657,0.000120609328269,0.000117112704409
165,1,0.000195436651487,0.000191213564419,0.000185734172433,0.000186866579469,0.000196565767898,0.000185779152131,0.000188357458167,0.000177682738133,0.000178373612696,0.000181885598451,0.000189177111324,0.00018441059825
166,1,0.000242948117035,0.000237348053888,0.000230925231449,0.000232211788111,0.000245178222503,0.000230986466905,0.000233620119271,0.000220515570046,0.000221037893587,0.000225896737798,0.000234663087059,0.000228917659134
167,1,0.000310358723443,0.000302850881942,0.000294028053465,0.00029599081666,0.000312705084558,0.000295148643678,0.0002971554561,0.000281269153632,0.000281651554259,0.000288242270122,0.000299281684628,0.000291774886178
168,1,0.000358127385411,0.000348946216333,0.000338401765826,0.000341344584927,0.00036057969053,0.000340917002175,0.000342348171561,0.000324639009855,0.000325066207894,0.000332571976187,0.000345320520904,0.000336590942294
169,1,0.000408697304038,0.000398022599883,0.00038608611453,0.000390452277373,0.000412208881925,0.000389608332142,0.000391215193379,0.000371193540471,0.000371571280512,0.000380375399893,0.000394451787259,0.000384650183481
170,1,0.000464182030689,0.000451605741911,0.000438549873522,0.000443637716661,0.000468312389708,0.000442420645399,0.000444304410809,0.000421539179816,0.000421487140755,0.000432250168959,0.00044755903176,0.000436847064613
171,1,0.000499332713533,0.000485438187335,0.000472036349671,0.000476943979656,0.000504290465943,0.000475696606224,0.000477305700061,0.000452883155116,0.000452697563271,0.000464547248163,0.000480769745988,0.000469511547058
172,1,0.000551445358623,0.000536127054329,0.000521339584466,0.000526979759239,0.0005570665525,0.000526014919409,0.000527288743104,0.000500533666201,0.000500352866141,0.000513506836402,0.000531307611313,0.0005189012045
173,1,0.000584906990053,0.000568171238352,0.000553002638818,0.000558752677603,0.000590800921609,0.000557726359907,0.00055891630598,0.000530513561199,0.000530187138086,0.000544624512175,0.000563024072472,0.000549965532629
174,1,0.000620799615254,0.000602927386057,0.00058714381524,0.00059274167114,0.00062699931649,0.000591208280662,0.000592630129464,0.000562388042637,0.000561723070738,0.00057760672065,0.000596695103608,0.00058285369541
175,1,0.000659508008851,0.000640530197734,0.000623245420801,0.000629651193012,0.000665691585464,0.000628509004905,0.000630327322903,0.000598396069627,0.000597476422126,0.000614692057576,0.000634557366583,0.000620091618572
176,1,0.000681635971764,0.000661528718158,0.000643510957707,0.000650375475413,0.00068701906382,0.000648601028113,0.000651196518273,0.000618236553997,0.000617374044463,0.000635166001884,0.000655306106098,0.000640640636392
177,1,0.0007187710302,0.000697755111987,0.000678263592035,0.0006863273511,0.000723638577775,0.000682740056976,0.000686320729685,0.000651250315161,0.000650567252679,0.000669305565542,0.00069034173142,0.000674802686874
178,1,0.000738386356351,0.000716884872815,0.000696761407138,0.000705668770359,0.000744264533593,0.000701566026232,0.000705390290141,0.000669239531701,0.000668739254646,0.000688548566225,0.000709509747703,0.000693691769623
179,1,0.000760669938446,0.000737817469595,0.000717901380918,0.000726331049574,0.000766734528778,0.000721453086761,0.000725463474925,0.000688299626921,0.000687397094606,0.000708246619652,0.0007295525568,0.000713444416352
180,1,0.000783667977237,0.000759955407374,0.000739280806034,0.000747961096269,0.000788906857633,0.000743527144312,0.000748130938806,0.000709526221191,0.00070821968868,0.000729693386728,0.000751899516317,0.00073527985203
181,1,0.000792733934511,0.00076881587271,0.000747507062218,0.000756344552799,0.000797398134897,0.000753471071128,0.000758169791794,0.000718922572237,0.000717549221638,0.000739291122889,0.000761993168646,0.000744996556671
182,1,0.000815987579273,0.000791244316652,0.000768896234587,0.00077787534757,0.000819718527277,0.000774592244475,0.000778857768114,0.000738713345851,0.000737374158653,0.000759641160133,0.000783517364311,0.000765382319784
183,1,0.000824026088051,0.000799340620974,0.00077562335564,0.000785269293373,0.000827247763246,0.000782365122922,0.000786789522729,0.00074620509027,0.000744978764159,0.000767421685682,0.000791772088185,0.000773150502088
184,1,0.000836051713125,0.000811138764028,0.000786683456598,0.000796558903496,0.000839210737953,0.000792638703658,0.000798045358081,0.000756548500032,0.000755171119634,0.000778165959618,0.000802583475576,0.000784024661786
185,1,0.000846081504857,0.000820816963167,0.000796214174395,0.000806168748869,0.000849290128866,0.000801082064245,0.000806586260609,0.000764373821647,0.00076297585513,0.000786553399715,0.000811004036797,0.000792362095209
186,1,0.000843473912789,0.000818439702206,0.000793954755316,0.000804152839114,0.000847002568993,0.000801852509777,0.000807179417806,0.000764795397471,0.000763166555846,0.000786836355068,0.00081122516599,0.000792806901561
187,1,0.000856590220936,0.000831160718937,0.000806797417963,0.000816978396652,0.000860032732839,0.000814080454722,0.000820003555598,0.000776739709624,0.000774546261139,0.000798511251518,0.000823335005837,0.000804862515042
188,1,0.000854240217574,0.000828715290809,0.000804987309523,0.000814694385039,0.000857405497993,0.000809697732362,0.000816015686559,0.000772945252322,0.000770313409144,0.000794212293599,0.000819083384592,0.000800716064448
189,1,0.000853103214751,0.000827221434546,0.000804389278662,0.000813580607467,0.000856857444457,0.000809784711472,0.000816507515844,0.000773660230608,0.000770780432459,0.000794876057095,0.000819335520456,0.000801439491328
190,1,0.000855228375115,0.000828682267584,0.000807138663728,0.000815750315729,0.000860109225152,0.000811159135351,0.000818755226116,0.000775856607777,0.000772882624347,0.000797244563433,0.0008211310196,0.00080373052264
191,1,0.000846707207379,0.000820116611513,0.000799493624957,0.000807750534679,0.000851754712594,0.000802207184888,0.000810555501969,0.000768133477969,0.000764736256311,0.00078890140189,0.000812573148208,0.00079557465515
192,1,0.00084724048061,0.000821046265091,0.000799764392352,0.000808165329103,0.000851156013744,0.000803025053077,0.00081144106171,0.000769264289823,0.000765703980352,0.000789527860162,0.000813575141223,0.000796509343149
193,1,0.000837299148028,0.000811340981174,0.000789155019623,0.000798090229504,0.000839755024308,0.000792220508544,0.000800642467433,0.000758978049398,0.00075588937037,0.000779037383537,0.000803085155433,0.00078589579174
194,1,0.000829070340674,0.000803362041188,0.000780579268467,0.000790106753162,0.00083114609717,0.000784199869705,0.000792407993575,0.000751024859416,0.000748474729561,0.000771410227944,0.000795060205465,0.000777760501995
195,1,0.000820442120996,0.000796261186921,0.000773006896292,0.000782583023046,0.000822394020533,0.000776469950394,0.000784307981289,0.000743313021284,0.000741211337335,0.000763619818849,0.000787166857579,0.000769765738132
196,1,0.000803084690373,0.000780176267806,0.00075675362097,0.000766016911552,0.000804123631838,0.000760891395193,0.000768683886555,0.000728431077252,0.000726597535251,0.000748309863431,0.000771645035209,0.000754377433724
197,1,0.000793356824826,0.000771430904631,0.000748435946218,0.000757281061639,0.000795277321757,0.000752309652244,0.000759655558128,0.000719912773558,0.000718552650755,0.000740160879581,0.00076263302149,0.000745653394043
198,1,0.000774738917286,0.000753869475056,0.000732104826754,0.000740053727868,0.000777613745291,0.000734001438899,0.000740820232551,0.000701752798957,0.000700756539989,0.000721632395871,0.000743474275964,0.000726977591707
199,1,0.000757734080257,0.000737215259906,0.000716516383554,0.000723070896884,0.000759692516106,0.000720152935532,0.000726428414457,0.000688044215556,0.000686838547998,0.000707212012808,0.00072880146854,0.000712584523836
200,1,0.000742799969968,0.00072295553576,0.000703031243111,0.000708982231576,0.000743914821413,0.000707516787503,0.000713262154135,0.000675826904841,0.000674707360019,0.000694710898196,0.000715572537474,0.000699634118485
201,1,0.00072264120539,0.000702840779465,0.0006839834977,0.000689504389414,0.000723567738362,0.000686912354071,0.000692297319246,0.0006558037068,0.000654863842629,0.000674350844207,0.000694407685373,0.000679115164165
202,1,0.00070488358726,0.000685432422651,0.000667639981628,0.000672143260033,0.000707248589241,0.000670615542199,0.000675190386119,0.000639629050835,0.000638480514387,0.000657947682227,0.00067729615602,0.000662485576975
203,1,0.000682446586416,0.000663381808265,0.000646109262433,0.000650904342569,0.000685300922717,0.000651244792331,0.000654812079086,0.000620706756119,0.000619639561668,0.000638289464815,0.000657096957423,0.000642597732303
204,1,0.000664695698142,0.000645149597097,0.000628579083955,0.000634227882496,0.000668108829918,0.000633637505665,0.000636144483282,0.000603346895289,0.000601965297391,0.000620167937344,0.000638511817986,0.000624522464703
205,1,0.000641784709924,0.000622880532717,0.000607321399672,0.000612595238553,0.000646334223177,0.000611878575628,0.000613336619646,0.000581906322237,0.000579513484903,0.000598014052335,0.000615517206874,0.00060220236659
206,1,0.000616131152836,0.000597622998224,0.00058231901169,0.000587348864989,0.000619558023275,0.000589854601602,0.000590565413861,0.000560271852526,0.000557495777681,0.000575629408006,0.000592518328977,0.000579798715437
207,1,0.000597938550459,0.000580076820502,0.000564823334618,0.000570232478374,0.000601159830869,0.000572094293957,0.000572012150516,0.000542554764584,0.000539653974793,0.000557730620732,0.000573959121703,0.000561690754179
208,1,0.000572787749614,0.000555474145163,0.000540048247999,0.000546065659007,0.000574790541175,0.000547138242366,0.00054616027979,0.000517822188879,0.000514592084377,0.000532220300085,0.000548038725184,0.000536231854668
209,1,0.000549755212325,0.000532240847148,0.000516541836725,0.000523080478315,0.000549820375952,0.000526093426969,0.00052460679426,0.000497255787924,0.000493602453796,0.000510237086666,0.000526243947851,0.000514898082383
210,1,0.000524936607224,0.000508318546658,0.000493193885251,0.000499767354482,0.000525767109652,0.000502633082718,0.000500691206288,0.000474687369494,0.000470590596281,0.000486639442935,0.00050227170055,0.000491509597264
211,1,0.000498284013242,0.000481999415193,0.000467623986575,0.000474668645638,0.000499676024102,0.000477796909949,0.000475262259592,0.000450410698683,0.000446478593841,0.000461521552679,0.000476872737699,0.000466786608704
212,1,0.000477608844404,0.000461680374607,0.000448022917215,0.000455294586583,0.000479112553163,0.000459519992036,0.00045647126275,0.000432759030232,0.000428726424509,0.000442769158488,0.000457839066063,0.000448268865948
213,1,0.000453546136238,0.000437419807964,0.000425170861464,0.000431923040514,0.000455071407627,0.000434572142221,0.00043125184701,0.000409126619534,0.000404611991093,0.000418274241251,0.000432190518481,0.00042336687297
214,1,0.000430108804921,0.000412722245864,0.000402430118018,0.000408514852516,0.000431176398129,0.00041162383577,0.000408637801511,0.000387608293597,0.00038294322741,0.000396204322132,0.000408858965547,0.000401196653641
215,1,0.000407404713895,0.000390171014879,0.000381582731786,0.000387764059902,0.000409031567831,0.000391782722063,0.000388955750715,0.000369349511931,0.000364797498304,0.000377327633487,0.000388739474151,0.000381994637551
216,1,0.000384740118829,0.000367764966949,0.000359943605782,0.000367405985844,0.000387078121044,0.000368136584687,0.000365020748462,0.000346771105949,0.000342641623056,0.000354049496244,0.000364989437462,0.000358543208428
217,1,0.000361001351102,0.000344647546385,0.000336712152545,0.000344516898232,0.000362167887726,0.000344877605537,0.00034149476582,0.00032429767072,0.00032048184951,0.000330985078428,0.000341619703025,0.000335437555475
218,1,0.000335433564311,0.000320636646093,0.000312366157301,0.000319904670179,0.000335215488026,0.000321027057719,0.00031713133985,0.000301029427768,0.000297830556426,0.000307697300226,0.000317535875061,0.000311787534929
219,1,0.000312075770551,0.000298567517964,0.000289788405359,0.000297491818283,0.000310650269789,0.000299015689599,0.000294659417284,0.000279404283147,0.000276805017376,0.000285997154903,0.0002953520296,0.000290035197891
220,1,0.000288448783504,0.00027577633704,0.000267665957596,0.000274200516468,0.000286665653578,0.000277619838625,0.000273584165539,0.000259345797305,0.000256497101918,0.000266181504891,0.000273992562988,0.000269512555683
221,1,0.000266484502286,0.000254326864319,0.000247595402015,0.000252568627903,0.00026550722826,0.000256449195491,0.000252697836889,0.000239369899326,0.000236400364008,0.000246164246241,0.000252985200003,0.000249044700971
222,1,0.000245274141626,0.000234010983456,0.000227092948284,0.000231878115352,0.000242696874181,0.000235389413445,0.000231222156863,0.000219127051408,0.000216362984661,0.000225116076158,0.000232067737534,0.00022795875761
223,1,0.000223154147285,0.000213200741546,0.000205820974683,0.000210953582742,0.000219095084112,0.000213817577552,0.000209559038642,0.000198687990151,0.000196374160269,0.000204510786589,0.000210944106452,0.000206849336267
224,1,0.000201894934687,0.000193221337199,0.000185420297086,0.000191045715938,0.000197886764669,0.000193792084584,0.000189961966985,0.000179755887598,0.000178230298822,0.000185600218914,0.000191516141635,0.000187648193359
225,1,0.000180651881932,0.000173323500219,0.000165134795025,0.000170872480949,0.000176540920217,0.000173357607686,0.000169720642663,0.000160538890302,0.000159289639642,0.000166016244362,0.000171364434624,0.000167706343151
226,1,0.000159853411355,0.000154067750829,0.000145764567965,0.000151205266969,0.000155834072246,0.000154643970373,0.000150780059929,0.000142729500855,0.000141356783047,0.000147491021544,0.000152633907252,0.000149144594723
227,1,0.000140171140043,0.000134969214245,0.000127029994898,0.000131744928308,0.00013627533728,0.000135977699839,0.00013191284479,0.000124836750415,0.000123365854501,0.000129383051959,0.000133760856433,0.000130679811807
228,1,0.00012159191771,0.00011662256381,0.000110565519649,0.000113849047088,0.000119716582909,0.000118382644807,0.00011416815953,0.000107949539063,0.00010648838558,0.000112787611176,0.000115702093517,0.000113462919132
229,1,0.000104523951964,9.9957004505e-05,9.57887641821e-05,9.79934696081e-05,0.000104424301384,0.000103752417454,9.89598027263e-05,9.38567590019e-05,9.23435608502e-05,9.82372544296e-05,0.000100426728739,9.86843494789e-05
230,1,8.65872185744e-05,8.24540808226e-05,7.951111351e-05,8.08648416687e-05,8.66292813785e-05,8.64076451771e-05,8.09950484622e-05,7.73819256768e-05,7.57019646298e-05,8.0921143453e-05,8.26102138365e-05,8.09842250171e-05
231,1,6.80710250847e-05,6.5151527206e-05,6.35083211264e-05,6.42074506715e-05,7.02099656843e-05,6.96139792256e-05,6.43965948419e-05,6.17988330206e-05,6.04405513198e-05,6.53316135375e-05,6.58966290969e-05,6.48728688279e-05
232,1,5.28446881879e-05,5.00216386854e-05,4.99195775859e-05,5.01376843156e-05,5.71734696633e-05,5.40722962813e-05,4.93506629436e-05,4.77704976449e-05,4.64276761395e-05,5.10567555673e-05,5.05095323507e-05,5.01020382883e-05
233,1,3.64810475279e-05,3.42393476063e-05,3.46192657398e-05,3.45515128392e-05,4.01384128613e-05,3.82864206772e-05,3.36815213567e-05,3.30794552292e-05,3.17606771321e-05,3.53287490645e-05,3.47997948039e-05,3.4368189152e-05
234,1,2.07423486577e-05,1.93836531978e-05,1.95637901343e-05,1.9731937656e-05,2.39164727514e-05,2.38603475528e-05,1.97883939492e-05,1.989573135e-05,1.91279181395e-05,2.26496621361e-05,2.08879550735e-05,2.09767044547e-05
235,1,7.85432792548e-06,6.17480934076e-06,7.72539688234e-06,7.24863356367e-06,1.30007748028e-05,9.32024541146e-06,6.06891633779e-06,6.96914246756e-06,5.94976993466e-06,1.03486276096e-05,6.7462683007e-06,7.68056069018e-06
236,1,-8.55700353371e-06,-8.7453635061e-06,-6.89372768664e-06,-7.87437451457e-06,-2.97079061353e-06,-4.64097637262e-06,-7.83055329073e-06,-6.24256837812e-06,-7.26810787419e-06,-3.74576329622e-06,-7.05603605971e-06,-6.29377460993e-06
237,1,-2.17302130487e-05,-2.11211438948e-05,-2.04711290774e-05,-2.07853481313e-05,-1.83295753863e-05,-1.77758341988e-05,-2.07269530092e-05,-1.84633437155e-05,-1.91736152871e-05,-1.66969872026e-05,-1.99188704441e-05,-1.92393982332e-05
238,1,-3.26731757165e-05,-3.13611383808e-05,-3.10822071419e-05,-3.15473479324e-05,-3.04127178329e-05,-2.93738587672e-05,-3.15614341872e-05,-2.89736647702e-05,-2.95411915461e-05,-2.79103829734e-05,-3.10203796701e-05,-3.02811787874e-05
239,1,-4.59602560221e-05,-4.27334264539e-05,-4.28896663275e-05,-4.32718495189e-05,-4.38586736305e-05,-4.02705541543e-05,-4.18419026097e-05,-3.90458888665e-05,-3.89370138901e-05,-3.82026521184e-05,-4.11666926539e-05,-4.05629399847e-05
240,1,-5.57047382747e-05,-5.23252070045e-05,-5.2353764806e-05,-5.24423276717e-05,-5.38312137896e-05,-5.188766174e-05,-5.245737304e-05,-4.92809994959e-05,-4.92609212296e-05,-4.86316330244e-05,-5.21744998634e-05,-5.11068283244e-05
241,1,-6.62067490956e-05,-6.24055857188e-05,-6.19982168981e-05,-6.30255982746e-05,-6.49416847889e-05,-6.19714530415e-05,-6.17726344001e-05,-5.84468624215e-05,-5.83852369269e-05,-5.83164669326e-05,-6.16259506835e-05,-6.04032329044e-05
242,1,-7.5939843445e-05,-7.15745333918e-05,-7.15479408805e-05,-7.23703341082e-05,-7.53870738474e-05,-7.20345322035e-05,-7.15832219107e-05,-6.78936399171e-05,-6.70960296663e-05,-6.74669322637e-05,-7.10909431961e-05,-6.9910577266e-05
243,1,-8.45475697389e-05,-7.97421238014e-05,-8.00551943617e-05,-8.02012244397e-05,-8.40994317588e-05,-8.18530700474e-05,-8.1068700725e-05,-7.67631282419e-05,-7.59001182756e-05,-7.68057816988e-05,-8.05330815714e-05,-7.92510696437e-05
244,1,-9.3843228847e-05,-8.84830749425e-05,-8.89356628219e-05,-8.90384157604e-05,-9.38148970846e-05,-8.88457350521e-05,-8.79445401813e-05,-8.31488829412e-05,-8.21408527381e-05,-8.40064332358e-05,-8.71756924383e-05,-8.60163528095e-05
245,1,-9.99641738035e-05,-9.48490148801e-05,-9.51990813176e-05,-9.5249262157e-05,-0.000100585792141,-9.65484524589e-05,-9.54291951517e-05,-9.03269383841e-05,-8.92524786501e-05,-9.13219878547e-05,-9.47898748093e-05,-9.3321845298e-05
246,1,-0.000107346742411,-0.000101903912941,-0.000101328934516,-0.00010240768452,-0.000107370960897,-0.000104050711109,-0.000102387587689,-9.71851198269e-05,-9.63470271554e-05,-9.8490025888e-05,-0.000102184345823,-0.000100224852806
247,1,-0.000114171291468,-0.00010924428954,-0.000107452788941,-0.000109465178015,-0.000114088279358,-0.000110116114104,-0.000108112333725,-0.000102427875264,-0.000101868856856,-0.000104304710296,-0.000108053594572,-0.000105793815764
248,1,-0.00011925906486,-0.000114599748678,-0.000112466958012,-0.000114448530197,-0.000119762711106,-0.000117458071906,-0.000115187236806,-0.000108906484017,-0.000108662926036,-0.000111581124167,-0.000115141883195,-0.000112716598999
249,1,-0.000126510408808,-0.000121060228406,-0.000119299981974,-0.000121019255121,-0.000127298519463,-0.000124153343043,-0.000121713496145,-0.000115132257668,-0.000114779658552,-0.000118399188813,-0.000121505793275,-0.000119293732596
250,1,-0.000132170481762,-0.000126611499711,-0.000125339409535,-0.000126860630324,-0.000133559830685,-0.000127634655414,-0.000125358276287,-0.000118550998359,-0.000118003768402,-0.000122127573014,-0.000125041852376,-0.000123045867266
251,1,-0.000134889667901,-0.00012867236612,-0.000127483407327,-0.00012914159625,-0.000135435338315,-0.000130515643985,-0.000128198202239,-0.000121241731652,-0.000120610166508,-0.00012498113019,-0.000127905472324,-0.000125674500589
252,1,-0.00013843093706,-0.00013251582486,-0.000130795812832,-0.000132794519498,-0.000138999682898,-0.000134908326128,-0.000132806096982,-0.000125300875879,-0.000124803604633,-0.000129449285667,-0.000132272836572,-0.000129945026881
253,1,-0.000141415593677,-0.000135872724754,-0.000134034881851,-0.000136021887094,-0.000142840582504,-0.000137863711211,-0.000136197456349,-0.000128376803997,-0.000127924595153,-0.000132951230934,-0.000135536374588,-0.000133298095498
254,1,-0.000144307778234,-0.00013812301648,-0.000136525902581,-0.000138228487793,-0.00014540717802,-0.000140163554611,-0.00013881370417,-0.000131014864386,-0.000130247599514,-0.000135662718362,-0.000138241957229,-0.000135951812235
255,1,-0.000148054345391,-0.000142007680537,-0.000139856711656,-0.000141830732218,-0.000148859543439,-0.000142285772168,-0.000141290853674,-0.000133223761442,-0.000132421195745,-0.000138035121642,-0.000140665274038,-0.000138350034559
256,1,-0.000149086019315,-0.000142889571873,-0.000139773482445,-0.000142383564193,-0.000148845364188,-0.000143415540762,-0.000142114241634,-0.00013400514889,-0.000133506870693,-0.000139213614964,-0.000141863973147,-0.000139228125055
257,1,-0.000149409653119,-0.000143461470901,-0.000139770231172,-0.00014272660981,-0.000149071470533,-0.000145142078375,-0.000143809369743,-0.000135549745024,-0.000134977719558,-0.000141108249081,-0.000143700350546,-0.000140975177499
258,1,-0.000151770883957,-0.000145850865788,-0.000142039810954,-0.000144773696158,-0.000151285591607,-0.000147407240014,-0.000146191603969,-0.000137911386914,-0.00013678750533,-0.000143287270877,-0.000145831649431,-0.00014330698795
259,1,-0.000154598103915,-0.000148135447887,-0.000144151652614,-0.00014684925545,-0.000153147943723,-0.00014909206907,-0.000147197299037,-0.00013913599404,-0.000138129862104,-0.000144563878154,-0.000147191460148,-0.000144449040109
260,1,-0.00015368537505,-0.000147709540327,-0.000143372568958,-0.000146442994567,-0.00015261835293,-0.0001479239608,-0.00014583095092,-0.000137500026944,-0.000136878223512,-0.000143826331339,-0.000145887799439,-0.000143092095616
261,1,-0.0001517362247,-0.000146091481615,-0.000142073827864,-0.000144629690902,-0.000151431445012,-0.000146551065089,-0.000144508227643,-0.000136026549043,-0.000135300444722,-0.000143018366057,-0.000144470658033,-0.000141699332277
262,1,-0.000150757975537,-0.000145259559912,-0.000141560735397,-0.0001438839545,-0.000151326739407,-0.000146103731622,-0.00014364543932,-0.000135239906269,-0.000134732502776,-0.000142215311794,-0.000143883867703,-0.000141049761442
263,1,-0.000148080777145,-0.000142770989776,-0.000138981638133,-0.000141361562718,-0.000149017992306,-0.00014472155367,-0.000141815516028,-0.000133575977461,-0.000133044949006,-0.000140480184747,-0.000142131399383,-0.000139437809186
264,1,-0.000148188350972,-0.00014295361344,-0.000139042984123,-0.000140868652229,-0.00014886583206,-0.00014533078016,-0.000141903069742,-0.000133925015816,-0.000133352475241,-0.000140640801596,-0.000142573519253,-0.000139572497952
265,1,-0.000148287371,-0.000143626535417,-0.000138595645116,-0.000141402511607,-0.00014824942034,-0.000144496779934,-0.000140761297036,-0.00013284753129,-0.000132451885762,-0.000139052181801,-0.000141696715687,-0.000138417209273
266,1,-0.000145151703312,-0.00014054614336,-0.000135147051174,-0.000138220015819,-0.000144588660107,-0.000141933509001,-0.000138189630631,-0.000130514016462,-0.000129526790792,-0.000136313478309,-0.000138859862177,-0.000135854342504
267,1,-0.000142903105563,-0.000138059635424,-0.000133744099313,-0.00013551537761,-0.000143512615704,-0.000140390660783,-0.000136514920652,-0.000129098202209,-0.000127705145493,-0.000134668951173,-0.000137129368382,-0.000134306499019
268,1,-0.000139897439234,-0.000135429473435,-0.000131032270181,-0.000132981739364,-0.000140760852932,-0.000137515743522,-0.00013328615963,-0.000126092959257,-0.000124684819854,-0.000131413497714,-0.000134160205785,-0.000131232269054
269,1,-0.000137497768782,-0.000133169327261,-0.000128166366008,-0.000130221441468,-0.000137415485067,-0.000136586422622,-0.000132111241978,-0.000125066826786,-0.000123782576289,-0.000130303902098,-0.000133187271796,-0.000130014166489
270,1,-0.000137556127266,-0.000133388035447,-0.00012821376254,-0.000130375013105,-0.000137947360247,-0.000135846703757,-0.000131327494106,-0.00012440710496,-0.00012334859161,-0.000129578672659,-0.000132444641393,-0.00012926824406
271,1,-0.000135101999869,-0.000131166522133,-0.000125966010238,-0.00012866684026,-0.000136009804751,-0.000132409604518,-0.000127615703054,-0.000121107632098,-0.00012011767816,-0.00012629299877,-0.000128798513321,-0.000125854479399
272,1,-0.000130696544048,-0.000126692295387,-0.000121887068631,-0.000124155232901,-0.000132078958911,-0.000130471391995,-0.000125551261646,-0.000119111116335,-0.00011827020124,-0.000124429079035,-0.000126627203555,-0.000123909022579
273,1,-0.000128908202219,-0.000125185371167,-0.000120434032087,-0.000122220316875,-0.000130208847216,-0.000128899510158,-0.000123966966265,-0.00011763456345,-0.0001167022174,-0.000122537555021,-0.000125022166241,-0.00012223780044
274,1,-0.000127040164186,-0.000124074282059,-0.00011884737751,-0.000120937393289,-0.0001273602838,-0.000125070477725,-0.000120093674004,-0.000114039072046,-0.000113151303638,-0.000118619667199,-0.000121291816969,-0.000118453429492
275,1,-0.000121979909843,-0.000119292773432,-0.000114128211132,-0.000116525977666,-0.000122973067562,-0.000120911083853,-0.00011610532071,-0.000110097095121,-0.000109394391388,-0.000114973860361,-0.000117168976158,-0.000114641436789
276,1,-0.000117900211558,-0.000115124333877,-0.000110356111729,-0.000112552325099,-0.000119738523076,-0.000117409617924,-0.000112430710819,-0.000106674001055,-0.000106070263985,-0.000111740616413,-0.000113560050404,-0.000110949404096
277,1,-0.000114538127599,-0.000112287509694,-0.00010721713401,-0.000109875501363,-0.00011571146257,-0.000114723202597,-0.00010943660215,-0.000103887415268,-0.000103476082098,-0.000108644651745,-0.000110793810587,-0.000107938670933
278,1,-0.000110460845624,-0.000108100657237,-0.000103227528239,-0.000105684001726,-0.000110964962028,-0.000109919696894,-0.000104874372597,-9.96587545555e-05,-9.88675309767e-05,-0.000104021835869,-0.000106017152409,-0.000103680396881
279,1,-0.000105768574386,-0.000102562250275,-9.8796755936e-05,-0.00010018327713,-0.00010675062171,-0.000103409123028,-9.88121898558e-05,-9.41133902597e-05,-9.26927014578e-05,-9.83579616775e-05,-9.96933475706e-05,-9.78969368968e-05
280,1,-0.000100731961786,-9.74246723794e-05,-9.39601899998e-05,-9.51626247506e-05,-0.000101938870618,-0.000101537772294,-9.67594317913e-05,-9.23855461024e-05,-9.08848703849e-05,-9.61316936182e-05,-9.78097706031e-05,-9.57873605997e-05
281,1,-9.83168585858e-05,-9.56101712955e-05,-9.16417052589e-05,-9.27960613007e-05,-9.86916795305e-05,-9.90234280302e-05,-9.37007854455e-05,-8.98011880759e-05,-8.83234217475e-05,-9.27991945166e-05,-9.49711236066e-05,-9.27218568369e-05
282,1,-9.45082035684e-05,-9.23457005336e-05,-8.81217986007e-05,-8.93369169428e-05,-9.48535109144e-05,-9.46517721447e-05,-8.91905865062e-05,-8.56398522108e-05,-8.44115534104e-05,-8.85515703566e-05,-9.06384684102e-05,-8.84751650838e-05
283,1,-9.04878794866e-05,-8.83163906582e-05,-8.43712440278e-05,-8.57843612291e-05,-9.19472812482e-05,-9.21292438669e-05,-8.6670003086e-05,-8.33115928982e-05,-8.25369967433e-05,-8.63339476291e-05,-8.84317968408e-05,-8.62382460422e-05
284,1,-8.78507244782e-05,-8.5678633324e-05,-8.15671466409e-05,-8.32222202703e-05,-8.89923720269e-05,-8.82951891549e-05,-8.2422027357e-05,-7.94633322539e-05,-7.87738291541e-05,-8.21349802301e-05,-8.46099589521e-05,-8.2158216671e-05
285,1,-8.44653311144e-05,-8.26491271362e-05,-7.81836798338e-05,-7.98407884828e-05,-8.47504799874e-05,-8.55482603826e-05,-7.93553265227e-05,-7.65500417179e-05,-7.59546417156e-05,-7.92691703812e-05,-8.16554961394e-05,-7.91354188454e-05
286,1,-8.01078305057e-05,-7.85519460408e-05,-7.47721246022e-05,-7.60378052384e-05,-8.18423265085e-05,-8.05161350481e-05,-7.48623496643e-05,-7.21457389049e-05,-7.12668315002e-05,-7.5088287675e-05,-7.66492658516e-05,-7.45908435515e-05
287,1,-7.3563022874e-05,-7.18641869355e-05,-6.86920751624e-05,-6.96076869434e-05,-7.55184904464e-05,-7.38651681229e-05,-6.88063891937e-05,-6.63916084358e-05,-6.52142781821e-05,-6.87979031437e-05,-7.04580977244e-05,-6.85659299948e-05
288,1,-6.91131746529e-05,-6.74806431181e-05,-6.39875301033e-05,-6.48925242669e-05,-6.98773526485e-05,-6.92690103095e-05,-6.44838735146e-05,-6.21916187525e-05,-6.14031576395e-05,-6.43979183589e-05,-6.64594145286e-05,-6.42864898929e-05
289,1,-6.44869418535e-05,-6.32912913271e-05,-5.98171459299e-05,-6.08717207936e-05,-6.57463118589e-05,-6.47154788224e-05,-6.05818064238e-05,-5.81994208755e-05,-5.77765382959e-05,-6.08479857317e-05,-6.24247284247e-05,-6.05288335308e-05
290,1,-6.10379258041e-05,-5.99391711451e-05,-5.71403067976e-05,-5.78808667978e-05,-6.31650757093e-05,-6.2578697646e-05,-5.88837921089e-05,-5.63511269641e-05,-5.61078439217e-05,-5.91953900341e-05,-6.0454021108e-05,-5.8878236042e-05
291,1,-5.94383426193e-05,-5.86456035236e-05,-5.58949937585e-05,-5.62813114561e-05,-6.12483227109e-05,-5.91864104203e-05,-5.55442635948e-05,-5.32156887287e-05,-5.26924325453e-05,-5.56536994995e-05,-5.69856223793e-05,-5.53535263369e-05
292,1,-5.39535699488e-05,-5.33719788631e-05,-5.05513829005e-05,-5.07561790966e-05,-5.46811917882e-05,-5.40286131993e-05,-5.07875368129e-05,-4.90431637245e-05,-4.82165833466e-05,-5.06550018175e-05,-5.22564400332e-05,-5.07680637327e-05
293,1,-4.93880784816e-05,-4.83893557242e-05,-4.58785781314e-05,-4.61655491775e-05,-5.01528220939e-05,-4.95603526914e-05,-4.65503626284e-05,-4.52791963585e-05,-4.44687694509e-05,-4.64002152476e-05,-4.81704937935e-05,-4.67405423675e-05
294,1,-4.57278250354e-05,-4.48401507993e-05,-4.18393430663e-05,-4.23316724504e-05,-4.62276453727e-05,-4.52927650397e-05,-4.21858157135e-05,-4.12220647548e-05,-4.06585681976e-05,-4.22471625739e-05,-4.40475440473e-05,-4.23898314101e-05
295,1,-4.23099071416e-05,-4.2005199726e-05,-3.81229174649e-05,-3.92314421664e-05,-4.17249620431e-05,-4.22392438548e-05,-3.95328452054e-05,-3.85867117739e-05,-3.85157045843e-05,-3.94632630778e-05,-4.15637011145e-05,-3.96446032676e-05
296,1,-3.91934545644e-05,-3.9507815415e-05,-3.54896188424e-05,-3.6910342874e-05,-3.887979633e-05,-3.73533687059e-05,-3.55695768856e-05,-3.4424866918e-05,-3.41615601309e-05,-3.50688373061e-05,-3.7135775037e-05,-3.54033981507e-05
297,1,-3.30817607973e-05,-3.37367049446e-05,-3.00650409849e-05,-3.09814899055e-05,-3.31987069212e-05,-3.15741652174e-05,-3.0798905059e-05,-2.95180123544e-05,-2.90549167259e-05,-3.01607394699e-05,-3.17173101743e-05,-3.06522419626e-05
298,1,-2.85838290859e-05,-2.86600107479e-05,-2.53616153381e-05,-2.68059205343e-05,-2.85507333681e-05,-2.82144859101e-05,-2.84690239097e-05,-2.74216645632e-05,-2.67464493555e-05,-2.78589567454e-05,-2.89594670417e-05,-2.85161581431e-05
299,1,-2.78861014343e-05,-2.70549157877e-05,-2.44239419987e-05,-2.61969898587e-05,-2.76838836934e-05,-2.48891273823e-05,-2.59343795987e-05,-2.54636847925e-05,-2.3908085645e-05,-2.51559858977e-05,-2.6034526684e-05,-2.60663123606e-05
300,1,-2.56316070946e-05,-2.3913020117e-05,-2.18130886377e-05,-2.33816685618e-05,-2.51310221096e-05,-2.10561219027e-05,-2.22072323192e-05,-2.22414991741e-05,-2.02797528519e-05,-2.13170013624e-05,-2.22605422594e-05,-2.24968733134e-05
301,1,-2.14827586087e-05,-1.91155353866e-05,-1.69042515722e-05,-1.91541208181e-05,-2.02644351199e-05,-1.7810469844e-05,-1.87742463982e-05,-1.91973035703e-05,-1.69657486365e-05,-1.74881678166e-05,-1.89034813971e-05,-1.90391016933e-05
302,1,-1.84508428066e-05,-1.60027112706e-05,-1.37494467683e-05,-1.62705887001e-05,-1.62121832969e-05,-1.47905357624e-05,-1.59151475749e-05,-1.64608320209e-05,-1.38811978943e-05,-1.38975343639e-05,-1.57689413232e-05,-1.61494089188e-05
303,1,-1.59305704452e-05,-1.28532015814e-05,-1.13055886647e-05,-1.35007383608e-05,-1.35026269887e-05,-1.18241700172e-05,-1.33430709504e-05,-1.40956749217e-05,-1.15011829092e-05,-1.14499674361e-05,-1.28863091807e-05,-1.38191624764e-05
304,1,-1.38006876933e-05,-9.8937994728e-06,-9.23543207814e-06,-1.11953494951e-05,-1.15160408239e-05,-8.735994301e-06,-1.06541966558e-05,-1.14949879816e-05,-8.94372825912e-06,-9.08987968308e-06,-9.9323400553e-06,-1.11586460247e-05
305,1,-1.16511956242e-05,-7.92616772149e-06,-7.69008403437e-06,-9.429229664e-06,-9.27146717201e-06,-5.98329364488e-06,-8.21416543024e-06,-8.71788865794e-06,-6.67005636178e-06,-6.61795363955e-06,-7.35098091539e-06,-8.73841964738e-06
306,1,-8.61942003067e-06,-5.49562776504e-06,-5.37954459395e-06,-7.15289453144e-06,-6.74172094477e-06,-3.33515070497e-06,-5.67476205064e-06,-6.09158877772e-06,-4.87982283917e-06,-4.48509831199e-06,-5.08030649725e-06,-6.30694878505e-06
307,1,-4.97317852371e-06,-2.61735615809e-06,-2.23195980689e-06,-4.44419195093e-06,-3.86719381403e-06,-8.71144093109e-07,-3.48385615041e-06,-3.79048602733e-06,-3.27127598449e-06,-2.51388375466e-06,-3.0113476889e-06,-4.01670396091e-06
308,1,-2.34600223177e-06,-6.60332980615e-07,-2.18765709251e-07,-2.09069596292e-06,-1.31991785561e-06,1.1439711958e-06,-2.17354809522e-06,-2.35835012028e-06,-2.12633415361e-06,-1.37875905785e-06,-1.4264837694e-06,-2.63680343328e-06
309,1,-1.82830492699e-06,-1.97691687907e-07,-8.403390454e-07,-1.24272704658e-06,-1.02530826288e-06,1.94899928591e-06,-2.25428016561e-06,-2.363019332e-06,-2.23218458636e-06,-1.82147098078e-06,-1.12680597711e-06,-2.74458134325e-06
310,1,-1.47016684041e-06,3.28178104418e-07,-1.66569589791e-06,-1.0337937912e-06,-1.58548578693e-06,3.12486886664e-06,-1.73724394599e-06,-1.65101867388e-06,-1.93522513196e-06,-1.44364713839e-06,-3.16191554127e-07,-2.31147754586e-06
311,1,8.10642921498e-07,2.15267223e-06,-4.03957389261e-07,6.22213081e-07,2.59241242497e-07,5.9858797425e-06,1.17232682627e-06,1.20519529274e-06,4.06596502399e-07,1.20655265253e-06,2.54259035694e-06,6.45475839585e-07
312,1,4.32753967514e-06,4.4421944324e-06,2.13696288286e-06,3.41376411864e-06,3.44923389721e-06,7.34554523086e-06,3.07085797448e-06,3.25840562956e-06,2.01287453238e-06,3.5468779397e-06,4.23313323862e-06,2.91168772291e-06
313,1,7.00856197954e-06,6.10763133376e-06,4.30290580778e-06,5.92290291696e-06,6.14904755148e-06,8.96169608848e-06,4.85354040765e-06,5.16415936902e-06,4.01421125837e-06,6.07139221497e-06,6.12201728696e-06,5.18739852788e-06
314,1,9.52879890799e-06,8.4778107704e-06,6.50900128108e-06,8.96660784949e-06,8.98915509775e-06,1.29989650663e-05,8.58199080993e-06,8.56328628357e-06,7.72875819382e-06,9.43426016561e-06,1.0018095745e-05,9.06637181007e-06
315,1,1.33567647581e-05,1.2280619042e-05,9.94997880295e-06,1.27978996925e-05,1.21972815852e-05,1.56091203657e-05,1.11235271576e-05,1.0830050318e-05,9.76002207033e-06,1.16446596916e-05,1.23283598603e-05,1.14271113593e-05
316,1,1.49411075321e-05,1.33948155716e-05,1.13796441871e-05,1.39198442819e-05,1.40007844949e-05,1.58862274282e-05,1.1858001492e-05,1.13447538288e-05,1.00217529898e-05,1.26013027551e-05,1.26568039105e-05,1.22418699293e-05
317,1,1.60603652447e-05,1.36289326621e-05,1.21633868599e-05,1.50442066317e-05,1.60688344953e-05,1.77124892556e-05,1.45201124523e-05,1.40531529171e-05,1.21850489586e-05,1.53491518116e-05,1.48113930468e-05,1.50666976844e-05
318,1,1.97806279738e-05,1.62107854075e-05,1.51711302436e-05,1.81152162019e-05,1.90537209275e-05,1.99437134837e-05,1.72329941804e-05,1.69967891744e-05,1.43586237926e-05,1.7682116688e-05,1.71706179111e-05,1.76056704814e-05
319,1,2.17214373684e-05,1.78315781704e-05,1.6992208196e-05,1.91783990035e-05,1.9926217166e-05,2.13248664982e-05,1.83870589998e-05,1.80452767435e-05,1.53299311691e-05,1.81267564472e-05,1.83476026081e-05,1.85039729972e-05
320,1,2.20694819171e-05,1.85600943384e-05,1.77002550736e-05,1.96584887553e-05,2.03118986221e-05,2.22208133735e-05,1.91835311398e-05,1.86757700581e-05,1.59974802752e-05,1.85759532729e-05,1.91450699451e-05,1.91598922081e-05
321,1,2.09816840722e-05,1.72278355537e-05,1.63905032699e-05,1.84679392441e-05,1.91250384546e-05,1.98491180991e-05,1.69317092758e-05,1.6351618783e-05,1.3708938478e-05,1.61380866251e-05,1.69221940868e-05,1.69567177349e-05
322,1,2.01851882745e-05,1.59431264021e-05,1.47290875018e-05,1.73751026768e-05,1.75206142695e-05,1.94916615385e-05,1.64685901439e-05,1.60453362036e-05,1.35900590919e-05,1.5664067956e-05,1.6607038717e-05,1.66594152708e-05
323,1,2.22989921099e-05,1.78728795892e-05,1.6399977858e-05,1.93945986265e-05,1.922510385e-05,2.27007224843e-05,1.9785589768e-05,1.95138430309e-05,1.69521792586e-05,1.90607312594e-05,1.98776850949e-05,1.9984374121e-05
324,1,2.45056086641e-05,2.03301261612e-05,1.89835950644e-05,2.16950659879e-05,2.1646917047e-05,2.43816795131e-05,2.15862867089e-05,2.09459993929e-05,1.86015864177e-05,2.07894596656e-05,2.15505555812e-05,2.16592910664e-05
325,1,2.52789495886e-05,2.18751988483e-05,2.03641229852e-05,2.30089198432e-05,2.2780337964e-05,2.46374281424e-05,2.17314693166e-05,2.07777611221e-05,1.88259918314e-05,2.12449456021e-05,2.1590805415e-05,2.18075817746e-05
326,1,2.46354104694e-05,2.14308242345e-05,2.02119632694e-05,2.2297512199e-05,2.25918469446e-05,2.41882208323e-05,2.16984435154e-05,2.04099675161e-05,1.86003455499e-05,2.14206208432e-05,2.11632319639e-05,2.1851604433e-05
327,1,2.45129770403e-05,2.13075273673e-05,2.05244105604e-05,2.22789898147e-05,2.31463595527e-05,2.48096390312e-05,2.24991939312e-05,2.09240616921e-05,1.93472797868e-05,2.21871427765e-05,2.17935920835e-05,2.26286664301e-05
328,1,2.57623030677e-05,2.2767864192e-05,2.17492644602e-05,2.41735067905e-05,2.46800294557e-05,2.62673782148e-05,2.3273103694e-05,2.22942088703e-05,2.0798825357e-05,2.30512130473e-05,2.32513236507e-05,2.35731472462e-05
329,1,2.73030086048e-05,2.39702223237e-05,2.23243880905e-05,2.51953229785e-05,2.52484061839e-05,2.78699093498e-05,2.40381387599e-05,2.37469912283e-05,2.23990251899e-05,2.40468147889e-05,2.48200653775e-05,2.4745120059e-05
330,1,2.83289238409e-05,2.50912939184e-05,2.32064652605e-05,2.59913085154e-05,2.6844501443e-05,2.90253490481e-05,2.4681705269e-05,2.42445075577e-05,2.33368571206e-05,2.50952048952e-05,2.55112930705e-05,2.55072245676e-05
331,1,2.80610590293e-05,2.55156626456e-05,2.37895681269e-05,2.62582723687e-05,2.79549765063e-05,2.93232053632e-05,2.48159258171e-05,2.40222200495e-05,2.35648986325e-05,2.50962457286e-05,2.55672143646e-05,2.54542904413e-05
332,1,2.8174362007e-05,2.58306328232e-05,2.39454765726e-05,2.61203236203e-05,2.71540938319e-05,2.93407714176e-05,2.46018911889e-05,2.39357230415e-05,2.36654056332e-05,2.44338488408e-05,2.55593137498e-05,2.51736912627e-05
333,1,2.79672248239e-05,2.5656755079e-05,2.37936221641e-05,2.60333405307e-05,2.66962774707e-05,2.88099120547e-05,2.39965997681e-05,2.35925558974e-05,2.33509107676e-05,2.3581804143e-05,2.48595738896e-05,2.47893645402e-05
334,1,2.77047842883e-05,2.5389894406e-05,2.38639603933e-05,2.59616804003e-05,2.67721666381e-05,2.94153507338e-05,2.47252892031e-05,2.4465785964e-05,2.41583336676e-05,2.38295603346e-05,2.54817095772e-05,2.57181347873e-05
335,1,2.79598876419e-05,2.55976463415e-05,2.44251670276e-05,2.56886288809e-05,2.69661705767e-05,2.96812609543e-05,2.49251970535e-05,2.4618591201e-05,2.41916773371e-05,2.39484242233e-05,2.5585921265e-05,2.57844272717e-05
336,1,2.70917217327e-05,2.52460109598e-05,2.40712600571e-05,2.49803781975e-05,2.68626703648e-05,2.93891650598e-05,2.45697000654e-05,2.39482648277e-05,2.39067291975e-05,2.40164540411e-05,2.50371833484e-05,2.52999051059e-05
337,1,2.70711469557e-05,2.55668951484e-05,2.40637010412e-05,2.51967815087e-05,2.68326823733e-05,2.906007414e-05,2.44997876112e-05,2.38315590934e-05,2.41765047258e-05,2.43139534802e-05,2.49544384644e-05,2.52038717996e-05
338,1,2.66223311739e-05,2.52614684428e-05,2.38545323747e-05,2.4839633181e-05,2.63976596732e-05,2.87111898937e-05,2.47258092436e-05,2.40310036408e-05,2.44810907104e-05,2.50006056001e-05,2.49426872302e-05,2.52435041168e-05
339,1,2.68951346796e-05,2.59783452345e-05,2.46405951817e-05,2.54791394783e-05,2.70832489656e-05,2.96207522206e-05,2.5942310075e-05,2.51087685e-05,2.55636721456e-05,2.64308779127e-05,2.59134827535e-05,2.62277094331e-05
340,1,2.63615991089e-05,2.55203813916e-05,2.42721318313e-05,2.4766335513e-05,2.64202990422e-05,2.72041492521e-05,2.35348309897e-05,2.278579052e-05,2.29987592044e-05,2.40760137298e-05,2.35564557343e-05,2.36642413489e-05
341,1,2.31009059666e-05,2.24278776303e-05,2.1587796011e-05,2.16400056696e-05,2.34512851682e-05,2.54229457289e-05,2.17978547324e-05,2.08686359909e-05,2.12436114678e-05,2.23820410761e-05,2.19115142296e-05,2.1794189391e-05
342,1,2.33225876883e-05,2.29915520038e-05,2.22871879008e-05,2.19423137922e-05,2.3589607228e-05,2.67347551603e-05,2.31063029798e-05,2.19796511046e-05,2.26085526743e-05,2.3836626458e-05,2.33090431321e-05,2.2977701404e-05
343,1,2.37865053066e-05,2.35131077892e-05,2.29522852202e-05,2.23005030545e-05,2.40251605778e-05,2.56627141554e-05,2.23199590824e-05,2.12474889345e-05,2.18028935518e-05,2.33061764238e-05,2.24503231543e-05,2.21844645515e-05
344,1,2.30523164408e-05,2.27576184297e-05,2.24479293438e-05,2.18463813355e-05,2.38808013247e-05,2.53584379422e-05,2.25110766161e-05,2.14894540466e-05,2.18957724227e-05,2.35608395256e-05,2.24581272054e-05,2.25256115899e-05
345,1,2.24798912596e-05,2.20363044184e-05,2.1979161208e-05,2.09213401264e-05,2.34414481007e-05,2.43401605157e-05,2.16644928568e-05,2.07176525886e-05,2.10389756272e-05,2.27145116466e-05,2.16102169582e-05,2.18294987178e-05
346,1,2.08997184332e-05,2.08245120375e-05,2.04204467967e-05,1.94083930182e-05,2.19978868997e-05,2.30497989635e-05,2.01075637865e-05,1.92299639286e-05,1.97606374465e-05,2.00073742502e-05,2.03572539092e-05,2.02604766491e-05
347,1,2.13133462158e-05,2.18915170805e-05,2.05006108721e-05,2.00941015923e-05,2.22014067549e-05,2.37791860791e-05,2.04537102373e-05,1.98716096877e-05,2.02634183552e-05,1.78453279485e-05,2.10421848176e-05,2.0545334013e-05
348,1,2.05859005384e-05,2.12741163314e-05,1.96763909438e-05,1.89954903111e-05,2.10151528624e-05,2.20170603174e-05,1.89839200816e-05,1.85191605225e-05,1.86903556616e-05,1.55353661768e-05,1.95250995578e-05,1.90335159938e-05
349,1,1.87964746793e-05,1.9596206506e-05,1.8252797741e-05,1.73896067753e-05,1.9237355809e-05,2.02511434781e-05,1.8148562376e-05,1.73170515769e-05,1.77378966561e-05,1.62490984324e-05,1.8193318817e-05,1.8078526498e-05
350,1,1.8380036104e-05,1.92235003454e-05,1.81376519616e-05,1.7370291107e-05,1.90598437333e-05,1.99232470221e-05,1.83635145785e-05,1.74269615187e-05,1.78486290552e-05,1.76771403271e-05,1.81218977997e-05,1.82699031846e-05
351,1,1.76946233047e-05,1.83482280634e-05,1.7765349261e-05,1.66995913427e-05,1.92894705092e-05,1.87921387006e-05,1.73375515602e-05,1.64673784494e-05,1.6782605219e-05,1.70442933371e-05,1.71965516985e-05,1.72354806073e-05
352,1,1.726951848e-05,1.78630383404e-05,1.74788992355e-05,1.63370778035e-05,1.91687167519e-05,1.78344874934e-05,1.65238038505e-05,1.5569438869e-05,1.593565459e-05,1.62105695516e-05,1.62773616086e-05,1.62403880718e-05
353,1,1.53370068114e-05,1.62938230572e-05,1.580616061e-05,1.47575216795e-05,1.67615620137e-05,1.61255881431e-05,1.4945193864e-05,1.4004391245e-05,1.44380857059e-05,1.43021537931e-05,1.47384746094e-05,1.46307332332e-05
354,1,1.38738370475e-05,1.51571618694e-05,1.48290667315e-05,1.36491075799e-05,1.60250577774e-05,1.49956723677e-05,1.40866994519e-05,1.33091680538e-05,1.3968643631e-05,1.39217873086e-05,1.42236989784e-05,1.39928551767e-05
355,1,1.38195689198e-05,1.46291196798e-05,1.4566221659e-05,1.34444729842e-05,1.62242045756e-05,1.38721822705e-05,1.33175769208e-05,1.29123252748e-05,1.33870122176e-05,1.35156439506e-05,1.36535540108e-05,1.33920459991e-05
356,1,1.18968212488e-05,1.24677782335e-05,1.20929144587e-05,1.11344727562e-05,1.32435594376e-05,1.19810695724e-05,1.16615606829e-05,1.1431100289e-05,1.16284615715e-05,1.16169998251e-05,1.20255215952e-05,1.17285965856e-05
357,1,1.17480539993e-05,1.23804428989e-05,1.18768610894e-05,1.12667677368e-05,1.29034956722e-05,1.17419502232e-05,1.17619099425e-05,1.15506838276e-05,1.19286998147e-05,1.24357405111e-05,1.20855270961e-05,1.17512117822e-05
358,1,1.20940723638e-05,1.26118256957e-05,1.24482900587e-05,1.21901568956e-05,1.36382274128e-05,1.1116813591e-05,1.13424695836e-05,1.11689866313e-05,1.16177404291e-05,1.2819531741e-05,1.16704564158e-05,1.1334260501e-05
359,1,1.08446599126e-05,1.17137135198e-05,1.12852091719e-05,1.08758564945e-05,1.21244172011e-05,1.14707660449e-05,1.17209138539e-05,1.13955589772e-05,1.19538628007e-05,1.35781823759e-05,1.20249570292e-05,1.17684340954e-05
360,1,1.09927466919e-05,1.2019994978e-05,1.15005706282e-05,1.08748311205e-05,1.18792511491e-05,1.05353290756e-05,1.11626948315e-05,1.08798258658e-05,1.15408387421e-05,1.37719475118e-05,1.1372557013e-05,1.11414401628e-05
361,1,9.38466633727e-06,1.0398812989e-05,1.02671082687e-05,9.56634060091e-06,1.05131241231e-05,8.09016676985e-06,9.3339497807e-06,8.85957651791e-06,9.57176031027e-06,1.21484452587e-05,9.28588066334e-06,9.11660086785e-06
362,1,8.48069998009e-06,9.52382681626e-06,9.5058556908e-06,8.84626113661e-06,1.00109122009e-05,8.70401310465e-06,1.02309116527e-05,9.47660746574e-06,1.04913779854e-05,1.31980991579e-05,1.00187806366e-05,9.89637750283e-06
363,1,9.54944256185e-06,1.03770289023e-05,1.03339992503e-05,9.87176607837e-06,1.06565219554e-05,8.09253263705e-06,9.64519331711e-06,9.02806519806e-06,1.01042746869e-05,1.27983856687e-05,9.6440451955e-06,9.24891083022e-06
364,1,7.89870313017e-06,8.88823441806e-06,8.51522192684e-06,8.10571563098e-06,8.59340875193e-06,5.94073756246e-06,7.56211248205e-06,6.96275507716e-06,7.87513831432e-06,1.05889402066e-05,7.75252633867e-06,7.17165632185e-06
365,1,5.0573689584e-06,6.12794297685e-06,5.6078922128e-06,5.28359559852e-06,6.09793613993e-06,4.12165603755e-06,5.94027598668e-06,5.39901671219e-06,6.40042101725e-06,9.44488204947e-06,6.12648320339e-06,5.68606125902e-06
366,1,4.46480174204e-06,5.31813832954e-06,5.07098068832e-06,4.98725858482e-06,5.40967163233e-06,3.38508503928e-06,5.9150524806e-06,5.37949037524e-06,6.40832092366e-06,9.44583882088e-06,5.8819721678e-06,5.70741928236e-06
367,1,6.16641260891e-06,6.92480353923e-06,6.86565993345e-06,6.81891672271e-06,7.16740859997e-06,3.3872212398e-06,6.55261262173e-06,5.89174484917e-06,6.7831322119e-06,1.00230966186e-05,6.27829433145e-06,6.39337597529e-06
368,1,4.47899511141e-06,5.21148476398e-06,5.49427667776e-06,5.01605450067e-06,6.04727393144e-06,1.2312909898e-06,4.49882674522e-06,3.85263942615e-06,4.45261464448e-06,7.80885905762e-06,4.05658219617e-06,4.30804377187e-06
369,1,1.7285176513e-06,2.6625821904e-06,3.13488517263e-06,2.03324607046e-06,3.0025883239e-06,1.11229433494e-07,3.52893445541e-06,2.8363761187e-06,3.2500752203e-06,5.99847740769e-06,2.95622738162e-06,3.12464840501e-06
370,1,1.61691461785e-06,2.69652787937e-06,2.86403829575e-06,2.04078998509e-06,2.6121513875e-06,-7.00513293988e-07,2.6516619214e-06,1.98138333369e-06,2.6421754688e-06,4.95478380118e-06,2.19505574765e-06,2.05229049934e-06
371,1,4.49526936569e-07,1.46504862081e-06,1.11547253183e-06,1.00713097209e-06,1.37432081634e-06,-1.69414076485e-06,1.38402805743e-06,9.13989701234e-07,1.56973290493e-06,3.47430811317e-06,1.25445136221e-06,7.50884551097e-07
372,1,7.67693592495e-07,1.81383313531e-06,1.13539570351e-06,1.07327446923e-06,1.30199987213e-06,-3.89503046283e-07,2.79139784301e-06,2.44886849542e-06,2.79537329119e-06,4.58164807217e-06,2.77293728798e-06,2.24413484852e-06
373,1,1.91181120858e-06,3.0388325415e-06,2.54034318753e-06,2.13423787783e-06,2.37756105875e-06,-8.38320001966e-07,2.80664626791e-06,2.34828532014e-06,2.55235014413e-06,4.42973102475e-06,2.42593055462e-06,2.19728583273e-06
374,1,8.97576024039e-07,1.90144970855e-06,1.68693442937e-06,1.18640690323e-06,1.48601296969e-06,-1.72970925753e-06,2.26462155087e-06,1.71109407646e-06,1.88365998129e-06,3.47798228772e-06,1.62029747466e-06,1.6225669147e-06
375,1,3.09185282985e-07,9.81216024693e-07,1.07075862739e-06,6.29264936617e-07,9.06765230725e-07,-1.50128335565e-06,2.50069080055e-06,2.0561809806e-06,2.17575122191e-06,3.63237173443e-06,1.90834591211e-06,1.92379147934e-06
376,1,7.79995084903e-07,1.24788615493e-06,1.79797876192e-06,9.93984034579e-07,1.32542060609e-06,-1.99921837763e-06,1.85714513254e-06,1.41437957997e-06,1.77484714373e-06,2.84724929669e-06,1.394396047e-06,1.35792977292e-06
377,1,5.72538390358e-07,1.22918977183e-06,1.91790333021e-06,9.1805073681e-07,1.22533180185e-06,-2.64826791046e-06,7.34212665414e-07,2.58831125412e-07,1.08012678403e-06,1.60342325221e-06,6.91298435428e-07,2.91801583842e-07
378,1,-6.88598132433e-07,3.73823851278e-07,8.03511394789e-07,1.75865534781e-08,4.37528157708e-08,-3.37475002182e-06,-4.03550363037e-07,-8.89294813961e-07,-2.40636944958e-08,2.28544143555e-07,-1.46727718572e-07,-8.33538409286e-07
379,1,-1.77233806877e-06,-6.23592941879e-07,-4.29183092941e-07,-1.08197249356e-06,-1.13768224148e-06,-3.53739272664e-06,-4.68146894503e-07,-1.01344701385e-06,-3.97822184934e-07,-5.41206170981e-07,-4.7385826279e-07,-8.57542764298e-07
380,1,-1.48269593245e-06,-5.51292535928e-07,-2.67376456319e-07,-8.58831006622e-07,-1.16090124397e-06,-3.19642618057e-06,1.33077980304e-07,-3.60009006609e-07,-1.66329367057e-08,-3.87510820496e-07,-2.54362357377e-07,-3.54609501784e-07
381,1,-9.03610283567e-07,-2.25469256506e-07,5.81315215846e-07,-2.2892775406e-07,-8.56571534256e-07,-3.99349792029e-06,-2.58222201456e-07,-8.71880651419e-07,-8.38904897551e-07,-1.16763245879e-06,-1.04677800617e-06,-9.00062411422e-07
382,1,-2.6291868136e-06,-2.45318891981e-06,-1.09143946873e-06,-2.46253090072e-06,-2.54722537212e-06,-6.18478592032e-06,-2.28358141911e-06,-2.91591464444e-06,-3.15456059858e-06,-3.44847858673e-06,-3.17615647555e-06,-3.01154306877e-06
383,1,-3.67993730102e-06,-3.64072288117e-06,-2.52241056694e-06,-3.82198548027e-06,-3.69549091688e-06,-5.59941469062e-06,-2.02975590825e-06,-2.45662027122e-06,-2.68122068733e-06,-3.48993488461e-06,-2.49270027158e-06,-2.89474190907e-06
384,1,-2.25617784633e-06,-1.93660264799e-06,-1.75048301075e-06,-2.30058033417e-06,-3.18409639071e-06,-3.20170391934e-06,-2.34266754526e-07,-6.78705989645e-07,-7.61103663667e-07,-2.35886373476e-06,-4.05137612782e-07,-1.12216978659e-06
385,1,-1.42135324839e-06,-1.01275300562e-06,-1.16606066798e-06,-1.74714055296e-06,-2.78660315768e-06,-2.76610839006e-06,4.65995263588e-08,-4.24028378107e-07,-7.73200230351e-07,-1.87763225978e-06,-4.69291193943e-07,-5.48230797576e-07
386,1,-5.04037442667e-07,5.82682992251e-08,6.59086407913e-07,-7.64912704227e-07,-4.32546709261e-07,-1.69341909873e-06,1.73191933172e-06,1.05658466248e-06,4.33069309848e-07,2.15155933819e-07,3.90041973197e-07,1.35128993742e-06
387,1,1.23516866716e-07,6.21682455125e-07,1.99743291865e-06,2.67269863698e-07,1.17368658127e-06,-2.49822353672e-06,1.1238855078e-06,3.55349422399e-07,-5.64419292387e-08,-1.18031751029e-07,-5.99957994778e-07,7.92165114524e-07
388,1,-1.47409047943e-06,-1.16332577538e-06,1.82063389367e-07,-1.20472019226e-06,-4.37661427389e-07,-4.74043633388e-06,-1.72317815186e-06,-2.09663915603e-06,-2.15051595884e-06,-2.87822887541e-06,-2.82958640544e-06,-1.90299365957e-06
389,1,-2.50002045586e-06,-2.18444239786e-06,-1.85678564452e-06,-2.30899939347e-06,-2.30273588709e-06,-3.44389341831e-06,-1.45798050347e-06,-1.44611751948e-06,-1.33956152422e-06,-3.54752658074e-06,-1.70385769689e-06,-1.69161685513e-06
390,1,-2.17102216807e-06,-1.93379672952e-06,-2.68316486592e-06,-2.37767328905e-06,-3.42277275823e-06,-2.94877666271e-06,-1.63315010788e-06,-1.28422471382e-06,-1.67126481324e-06,-4.17929497593e-06,-1.71557273782e-06,-2.0050757904e-06
391,1,-2.53644092507e-06,-2.19455128617e-06,-3.08678990458e-06,-2.90050393676e-06,-3.45440915422e-06,-2.74826893967e-06,-1.84472187822e-06,-1.34792756222e-06,-2.0040912388e-06,-4.36404469043e-06,-1.87184181354e-06,-2.14492626139e-06
392,1,-1.14695072234e-06,-2.03350456258e-07,-1.52398778789e-06,-9.94510508918e-07,-1.45100360804e-06,-7.93183591583e-08,7.54335037986e-08,5.20424853211e-07,3.91824265363e-07,-2.44344041179e-06,3.62331161807e-07,-1.61703310195e-07
393,1,-2.17161680514e-07,1.39516951189e-06,-4.07719257289e-07,3.81779872363e-07,-4.67929627219e-07,-1.6590719868e-07,-7.88563196353e-08,2.76133859515e-07,1.95807560519e-07,-2.38224917461e-06,3.91834509368e-08,-2.95482211543e-07
394,1,-1.58315699953e-06,-2.02561039046e-07,-1.22880702447e-06,-7.59386547185e-07,-9.65283716176e-07,-1.63937935088e-06,-1.18286820454e-06,-1.05870072915e-06,-1.07327594051e-06,-3.28304401847e-06,-1.4281405592e-06,-1.30956103544e-06
395,1,-1.83380358292e-06,-1.23131272027e-06,-9.96428669252e-07,-1.22134505403e-06,-4.57629403987e-07,-1.41784565673e-06,-1.155505529e-06,-1.15404655563e-06,-6.55400519663e-07,-3.01254472484e-06,-1.37205925619e-06,-1.1753272486e-06
396,1,-2.3370127079e-06,-1.63257794386e-06,-9.25892939892e-07,-1.82530631869e-06,-8.39010496105e-07,-1.40446010948e-06,-1.59331685911e-06,-1.79398446193e-06,-7.60636647085e-07,-3.26596974819e-06,-1.44349126537e-06,-1.62375063691e-06
397,1,-3.80856735082e-06,-2.23482554099e-06,-1.58585473687e-06,-2.80421608714e-06,-2.05281030927e-06,-2.63870863133e-06,-2.95664740707e-06,-3.5183299833e-06,-2.0647995859e-06,-4.11041388802e-06,-2.76511363065e-06,-3.12521198222e-06
398,1,-5.66507781493e-06,-3.12087364151e-06,-2.27843585147e-06,-4.43052125117e-06,-3.11811917828e-06,-3.50678525351e-06,-3.76322010764e-06,-4.50827962109e-06,-3.02529923278e-06,-4.81512502994e-06,-3.70686785165e-06,-4.09246816884e-06
399,1,-5.12306984821e-06,-2.06617576351e-06,-1.48327865373e-06,-4.13173816697e-06,-2.79524550056e-06,-1.32059645204e-06,-1.69938656816e-06,-2.36879012147e-06,-7.87269671204e-07,-3.27488000523e-06,-1.23457105857e-06,-2.03960348134e-06
400,1,-3.13680118285e-06,2.764717211e-08,-3.15685534341e-07,-2.38845337355e-06,-2.20885469978e-06,-1.54360638618e-07,-8.69875650348e-07,-1.15484351326e-06,7.67994395518e-07,-2.84775472243e-06,2.59418685974e-07,-1.21961213545e-06
401,1,-4.14675995188e-06,-5.4061568102e-07,-1.70701012975e-06,-3.09996641854e-06,-3.56363106853e-06,-1.32458111809e-06,-2.40873967352e-06,-2.55263915855e-06,4.96821081574e-08,-4.41296644627e-06,-7.52207002156e-07,-2.80332809348e-06
402,1,-4.90571548887e-06,-7.89127485852e-07,-2.3889463297e-06,-3.37776988657e-06,-3.95493461875e-06,-2.52105634015e-06,-3.79407342542e-06,-4.08154667514e-06,-1.13836627229e-06,-5.69320188553e-06,-2.0447360018e-06,-4.3509583219e-06
403,1,-6.90963355685e-06,-2.36730918861e-06,-4.31607393779e-06,-4.7466705044e-06,-5.73072078343e-06,-4.29433248176e-06,-5.60511222478e-06,-5.86656840384e-06,-3.38761619219e-06,-7.65137325085e-06,-4.1099210175e-06,-6.30098058835e-06
404,1,-8.46413762717e-06,-4.00953093888e-06,-5.95099738014e-06,-6.1746989003e-06,-6.82355603758e-06,-4.01310640986e-06,-5.02840697784e-06,-5.26966930258e-06,-3.76807063394e-06,-7.18330765353e-06,-4.1487984407e-06,-5.52367030783e-06
405,1,-5.69926947862e-06,-2.15570099814e-06,-3.47133511987e-06,-4.299225745e-06,-4.37519621499e-06,-1.80897822239e-06,-2.41689002773e-06,-2.5692842929e-06,-2.43960825101e-06,-4.87617535272e-06,-2.37367743804e-06,-2.92590686818e-06
406,1,-4.13832252856e-06,-1.92446200791e-06,-2.66468065083e-06,-3.44342359009e-06,-3.78369560183e-06,-1.55117263301e-06,-2.20124729921e-06,-2.16040808144e-06,-2.82330579394e-06,-4.79593929237e-06,-2.35007048958e-06,-2.6496584164e-06
407,1,-3.50702973774e-06,-2.55214970087e-06,-3.00058780642e-06,-3.29571960369e-06,-3.77415484671e-06,-2.65014155697e-06,-4.05413003509e-06,-3.65347737444e-06,-4.47943518606e-06,-6.41338650557e-06,-3.58824843123e-06,-4.17188924863e-06
408,1,-3.90229640964e-06,-3.29636425706e-06,-3.90733034447e-06,-3.59752418259e-06,-4.39753311202e-06,-2.73059559103e-06,-5.14681828545e-06,-4.32208236585e-06,-4.98793199445e-06,-6.95952752472e-06,-3.87052075684e-06,-4.95382075337e-06
409,1,-4.32277486285e-06,-3.88993311738e-06,-4.73811680019e-06,-3.61283099897e-06,-4.39262955925e-06,-2.31087601952e-06,-4.68258539637e-06,-3.81222514742e-06,-4.63752968433e-06,-6.12081023392e-06,-3.38188569054e-06,-4.19339710758e-06
410,1,-2.89407912396e-06,-2.99740325972e-06,-3.74459067762e-06,-2.681182346e-06,-3.07112447419e-06,-2.99692618738e-06,-4.57307719613e-06,-3.5809282968e-06,-5.38553620216e-06,-6.37239414577e-06,-3.76571867474e-06,-4.09331307301e-06
411,1,-3.57660149216e-06,-4.19549553179e-06,-4.95804333235e-06,-4.0441618736e-06,-4.95992068242e-06,-4.22089051927e-06,-5.26910616261e-06,-4.21069507366e-06,-6.6000598596e-06,-7.39667926123e-06,-4.7752855359e-06,-4.89144754853e-06
412,1,-3.14840293221e-06,-4.58111028389e-06,-5.11605377248e-06,-3.90656453341e-06,-5.09214111181e-06,-3.11669006151e-06,-3.62928084698e-06,-2.78579989337e-06,-5.49913104938e-06,-5.68788529637e-06,-3.70223101134e-06,-3.2573199373e-06
413,1,-9.88094259983e-07,-3.09274854243e-06,-2.99422213312e-06,-1.76616199544e-06,-2.64256500341e-06,-2.50581315951e-06,-2.66160467911e-06,-1.8245469303e-06,-4.91615993515e-06,-4.57262286345e-06,-3.15913573251e-06,-2.2093374229e-06
414,1,-9.40635486802e-07,-3.35879905213e-06,-2.86763524958e-06,-1.85059405059e-06,-2.97640506832e-06,-3.59887835431e-06,-3.72324000102e-06,-2.84190342025e-06,-6.08763793453e-06,-5.89046906921e-06,-4.14950043914e-06,-3.24254765751e-06
415,1,-2.18620239322e-06,-5.0096480458e-06,-4.4967797972e-06,-3.412169729e-06,-4.91053517524e-06,-4.53468265932e-06,-4.8642995164e-06,-3.70472578549e-06,-7.0315786246e-06,-6.89088457638e-06,-5.03179970575e-06,-4.31965887392e-06
416,1,-3.38086096962e-06,-6.77325463819e-06,-6.3552768328e-06,-4.55133015778e-06,-5.79538529526e-06,-4.97457442387e-06,-5.68261219215e-06,-4.3770710819e-06,-7.30406233993e-06,-7.27098081804e-06,-5.54315633916e-06,-5.12785427261e-06
417,1,-1.50384950896e-06,-5.18089996403e-06,-4.71077344966e-06,-2.44799628626e-06,-3.62589720539e-06,-2.53740777858e-06,-3.19435981518e-06,-2.29883530926e-06,-4.76617990361e-06,-4.99394082298e-06,-3.21328919317e-06,-2.95553430292e-06
418,1,-3.15301950162e-07,-3.3203083278e-06,-2.57671342863e-06,-7.24854334411e-07,-2.23754922395e-06,-2.79638532345e-06,-3.20495127361e-06,-2.85640027182e-06,-5.03056998647e-06,-5.14834940666e-06,-3.69901845915e-06,-3.20805279424e-06
419,1,-2.88158442666e-06,-5.18365585645e-06,-4.34964727078e-06,-2.7003781991e-06,-4.33987666428e-06,-5.14050127009e-06,-5.77807572629e-06,-5.5371647667e-06,-7.57422162418e-06,-7.43463073994e-06,-6.20458536783e-06,-5.71838295898e-06
420,1,-3.67676472208e-06,-6.66492969911e-06,-5.56030377292e-06,-3.98369704661e-06,-5.24936092896e-06,-3.76436117447e-06,-4.45692791e-06,-3.81328092241e-06,-6.19950740822e-06,-5.42385923702e-06,-4.79717578166e-06,-4.04612169137e-06
421,1,-1.89945643316e-06,-5.94151896649e-06,-4.08284538081e-06,-2.95319099087e-06,-3.16246412665e-06,-3.42763436329e-06,-3.81534245465e-06,-2.97436461777e-06,-5.49280502045e-06,-4.17310098758e-06,-4.19401782551e-06,-3.10480180724e-06
422,1,-1.66420461748e-07,-4.53722693732e-06,-2.98939525538e-06,-1.30522812347e-06,-1.65121090505e-06,-3.03343537354e-06,-3.69109555936e-06,-2.58878938864e-06,-4.98573802968e-06,-4.17662505428e-06,-3.63637637857e-06,-3.11586209681e-06
423,1,3.73294175253e-07,-3.88372544341e-06,-3.56382706598e-06,-9.43631784921e-07,-2.98454737501e-06,-2.01867295888e-06,-2.72186425748e-06,-1.4362343164e-06,-3.99666609863e-06,-3.97931174676e-06,-2.50972503691e-06,-2.49829897708e-06
424,1,-1.2302863222e-06,-5.35522435891e-06,-5.35118049811e-06,-2.7667824419e-06,-5.21668048816e-06,-3.68832275967e-06,-3.8556423558e-06,-2.79349990678e-06,-5.47141398789e-06,-5.47619439915e-06,-3.85248316342e-06,-3.79390153389e-06
425,1,-1.88707168447e-06,-5.99078390295e-06,-5.71385721489e-06,-3.28823586072e-06,-5.17851178572e-06,-3.25737967911e-06,-3.68816589665e-06,-2.76259660147e-06,-5.0994328308e-06,-4.91462511668e-06,-3.70154394463e-06,-3.62993020296e-06
426,1,2.24773761713e-07,-3.41489060009e-06,-3.34261024862e-06,-8.81737857156e-07,-3.01971067324e-06,-1.41159846423e-06,-2.43106204491e-06,-1.72545188785e-06,-3.51848217537e-06,-3.56274328557e-06,-2.3597572777e-06,-2.33640183241e-06
427,1,-4.63215981196e-07,-3.75670176865e-06,-3.83701008095e-06,-1.36840686439e-06,-3.28157917441e-06,-2.86526232148e-06,-4.09781920344e-06,-3.34428671136e-06,-4.72792417191e-06,-4.67641434409e-06,-3.79521070168e-06,-3.61131666637e-06
428,1,-2.26610903561e-06,-5.4495405763e-06,-5.54970019802e-06,-2.88398648825e-06,-4.27146098162e-06,-4.08590434285e-06,-5.67410384644e-06,-4.64351938934e-06,-5.55118891756e-06,-5.40898740346e-06,-4.93079739248e-06,-4.82562694097e-06
429,1,-2.45795199227e-06,-5.40119501823e-06,-5.83386586194e-06,-2.97958469443e-06,-4.59698085481e-06,-2.96250216637e-06,-4.82130269141e-06,-3.80412000347e-06,-4.56318514328e-06,-4.61955467458e-06,-3.873363067e-06,-4.03913552614e-06
430,1,-1.95756182983e-06,-5.11437123297e-06,-5.34931339331e-06,-2.9870168343e-06,-4.39573982044e-06,-2.25134000239e-06,-3.89986736571e-06,-2.95210907661e-06,-4.01985888878e-06,-3.86165877936e-06,-3.256537111e-06,-3.13690142235e-06
431,1,-9.41900862868e-07,-4.03614629438e-06,-3.65955719597e-06,-2.08794743895e-06,-2.98458868663e-06,-2.27129533064e-06,-3.16737188043e-06,-2.56449329944e-06,-3.69809533044e-06,-3.04226327644e-06,-3.14781694518e-06,-2.43216308117e-06
432,1,-1.33963455e-06,-4.04054570787e-06,-3.0637815559e-06,-2.27322178607e-06,-2.48091989685e-06,-2.36367695647e-06,-2.7559927091e-06,-2.38013721824e-06,-3.46571057195e-06,-1.97456061077e-06,-3.2605636808e-06,-2.14637004267e-06
433,1,-1.47017929775e-06,-3.91567823037e-06,-2.38257437699e-06,-2.18916190153e-06,-1.59820050858e-06,-1.86095574163e-06,-2.42401280235e-06,-1.99691264888e-06,-2.69419557137e-06,-1.06841359692e-06,-2.85137837709e-06,-1.84084958431e-06
434,1,-5.32641247348e-07,-2.47221679967e-06,-1.32535040488e-06,-8.57696667219e-07,-5.9897864352e-07,-3.87313102073e-07,-1.27308504226e-06,-8.25184082444e-07,-9.02342960034e-07,-3.25791157115e-07,-1.11417295029e-06,-7.0301950338e-07
435,1,3.08090353433e-08,-1.50568858895e-06,-1.39676782906e-06,-4.6047040988e-07,-9.60924268045e-07,-3.72328203012e-07,-1.41891375873e-06,-6.31766905275e-07,-8.30451601459e-07,-7.51607596459e-07,-9.57267481302e-07,-8.96439964432e-07
436,1,-3.47289527587e-07,-1.89397390029e-06,-1.96052633924e-06,-1.03047440583e-06,-1.61383511034e-06,-6.38810943261e-07,-1.12331573768e-06,-3.45700214566e-07,-5.45668053907e-07,-4.74210820333e-07,-1.01356048911e-06,-6.85321593529e-07
437,1,2.25760756742e-07,-1.2690184907e-06,-1.04149813221e-06,-3.67294187646e-08,-5.30965947842e-07,-4.73768213455e-07,-5.7845439165e-07,-9.37423854912e-08,3.09347393925e-07,1.94002854344e-08,-5.55404686433e-07,-2.58130689156e-07
438,1,-5.33333835753e-07,-1.30159291055e-06,-1.36136084155e-06,-4.65302841543e-07,-1.29534405069e-06,-1.22255701798e-06,-1.66599673154e-06,-1.2879339362e-06,-3.45100532435e-07,-9.60044504849e-07,-1.29875632313e-06,-1.42550773733e-06
439,1,-1.01092744786e-06,-1.07822003702e-06,-1.08606240924e-06,-6.88028269712e-07,-1.33004366835e-06,3.91855976854e-07,1.21215443102e-07,2.01489693239e-07,1.42848184015e-06,8.69748082352e-07,2.99330078606e-07,3.75310133285e-07
440,1,1.01830295459e-06,7.53965568748e-07,1.30086894086e-06,1.28550760741e-06,1.60138151224e-06,9.45802654053e-07,8.10379963043e-07,9.8372815269e-07,1.87352222282e-06,1.70851616584e-06,7.25957819029e-07,1.04653536165e-06
441,1,2.15198932676e-07,-1.62372108877e-07,2.20963493861e-07,-2.87943142515e-09,3.14230537855e-07,-6.28081333578e-07,-1.10706325052e-06,-5.69131752027e-07,5.21196652562e-08,-9.999995861e-08,-1.06797991053e-06,-8.93172061367e-07
442,1,-9.18260165675e-07,-1.11458299542e-06,-1.17115190299e-06,-9.76879957462e-07,-1.2997043764e-06,-6.51941339615e-07,-9.6106939375e-07,-4.09244429278e-07,2.55647262569e-07,1.74620049532e-07,-1.06808367673e-06,-7.09579748183e-07
443,1,-1.02298610581e-06,-1.27147823182e-06,-1.14401718606e-06,-7.78070994805e-07,-9.72541113871e-07,-1.25430317196e-06,-1.12216787995e-06,-8.71812951931e-07,-3.51103985922e-07,-7.32358400784e-08,-1.58870577953e-06,-1.05852743225e-06
444,1,-7.32040040687e-07,-7.59493614983e-07,-4.96675218883e-07,-6.40459541226e-07,-6.1777915334e-07,-1.00609929791e-07,2.13817926761e-07,3.2348580996e-08,7.39067843032e-07,6.80182679889e-07,-3.56402242433e-07,-8.17689952597e-09
445,1,3.39810959024e-07,2.67175965715e-07,7.15367463413e-07,3.37068299182e-07,4.46133673576e-07,2.2955530392e-07,6.61722252534e-07,6.26263534674e-07,1.30038535272e-06,1.09814852456e-06,2.34081186551e-07,4.70214381987e-07
446,1,-9.05554399364e-07,-1.32526089974e-06,-4.40244046543e-07,-1.1827752764e-06,-6.14662550263e-07,-2.21452128949e-06,-1.72371022815e-06,-1.33575946634e-06,-1.07631739255e-06,-1.14648874295e-06,-2.04831899363e-06,-1.85361259251e-06
447,1,-1.54790266393e-06,-1.71753001263e-06,-1.08244592762e-06,-2.01068390153e-06,-1.29374766239e-06,-6.78440187727e-07,-2.8855778503e-07,3.38496292299e-07,5.00957176095e-07,3.11535709241e-07,-5.15562341769e-07,-4.62668149931e-07
448,1,1.26617910239e-06,1.42022075949e-06,1.70390155494e-06,1.25493081722e-06,1.86694056529e-06,2.19005474721e-06,2.79427727544e-06,3.60127992178e-06,3.57561992397e-06,3.70123143582e-06,2.45991311439e-06,2.72058540992e-06
449,1,2.75705166619e-06,2.92602738599e-06,3.20248250409e-06,2.94909471909e-06,3.32393421893e-06,1.27760350847e-06,2.49586910169e-06,3.0022825869e-06,3.09626912624e-06,3.51961729196e-06,1.86839156437e-06,2.55618341944e-06
450,1,6.51315571262e-07,7.98623582308e-07,1.14802932303e-06,7.04993175025e-07,1.06320392631e-06,-1.55034391885e-06,-9.9154959716e-08,2.02679160477e-07,6.64661492509e-07,1.23716626452e-06,-6.60957039162e-07,1.23111927573e-07
451,1,-1.54878995839e-06,-1.46271795751e-06,-6.55300390358e-07,-1.35148572942e-06,-2.35609422094e-07,-2.97208428105e-06,-1.73476874406e-06,-1.26038831718e-06,-8.77536344423e-07,-4.13665156818e-07,-2.20029119301e-06,-1.52736287958e-06
452,1,-1.70953960132e-06,-1.54833885553e-06,-8.64649046972e-07,-1.57627305698e-06,-8.16824139897e-07,-2.09675705842e-06,-1.33587455795e-06,-8.52067297355e-07,-3.71378583618e-07,-3.00050877946e-07,-1.58738158382e-06,-1.33692383376e-06
453,1,-1.67401198401e-06,-1.21413582742e-06,-8.77257048561e-07,-1.43228912505e-06,-1.35812369258e-06,-1.78594289185e-06,-1.28925405844e-06,-9.39397588484e-07,-1.28518319658e-07,1.51888275374e-07,-1.41717692369e-06,-1.19691543983e-06
454,1,-2.02829526902e-06,-1.40689716089e-06,-6.1384454801e-07,-1.48202962509e-06,-7.65846687442e-07,-1.89247066992e-06,-9.41886140103e-07,-9.24182721612e-07,-5.82904109404e-08,4.81901893973e-07,-1.57406938168e-06,-7.74959049849e-07
455,1,-6.66487191474e-07,-1.86891802145e-07,7.28467736691e-07,-4.25210823652e-07,5.15755662827e-07,-1.73669682485e-07,1.06288199489e-06,9.44587738437e-07,1.67240267644e-06,2.11821991281e-06,3.40483945413e-07,9.93048387016e-07
456,1,7.04512354922e-07,1.22857459181e-06,1.48729912433e-06,7.36929902117e-07,1.31554811561e-06,1.50161402617e-06,2.10964069809e-06,2.19719568317e-06,3.16195733099e-06,3.32693033329e-06,2.01321789731e-06,2.05592197047e-06
457,1,1.2131731652e-06,2.21765244195e-06,1.8631347732e-06,1.62252969052e-06,1.9854138328e-06,1.3778911719e-06,1.52503344824e-06,1.49864834709e-06,2.80509991711e-06,3.16831445656e-06,1.64694866863e-06,1.59795428416e-06
458,1,5.60558882373e-07,1.99240842954e-06,2.05809962863e-06,1.27077608479e-06,2.26732468664e-06,2.69057745668e-07,8.90828621725e-07,3.77614475389e-07,1.78115448762e-06,2.99704777385e-06,5.6838107926e-07,8.11934945367e-07
459,1,-7.11075634605e-07,9.11505604361e-07,1.64286161221e-06,1.99834217159e-07,2.16795690842e-06,6.9039746373e-07,1.41088218505e-06,6.21118934994e-07,2.60350478722e-06,3.49396646361e-06,1.02640825685e-06,1.31758274309e-06
460,1,5.2972716999e-07,2.00622161559e-06,2.55584728012e-06,1.45008291442e-06,2.92401353242e-06,1.05584899239e-06,1.68688990797e-06,1.0659864218e-06,3.06947846548e-06,3.37589455547e-06,1.48886042147e-06,1.60718711831e-06
461,1,6.14789865092e-07,1.78378475505e-06,1.95870527232e-06,1.09998343449e-06,1.74222329661e-06,5.19155773597e-07,1.57600119612e-06,1.07301869313e-06,2.35191726933e-06,2.87680473064e-06,1.1107445295e-06,1.33926205528e-06
462,1,8.64719377409e-07,1.96605349286e-06,1.89705777118e-06,8.97630571139e-07,1.58666449343e-06,1.29454176544e-06,2.35939290162e-06,1.6407110862e-06,3.01537679266e-06,3.50174943658e-06,1.69452755595e-06,2.04683125848e-06
463,1,6.22182018462e-07,1.91719437717e-06,1.94332018934e-06,9.34999220342e-07,1.73329767027e-06,-1.95174111895e-07,6.08235468748e-07,-2.60093680631e-07,1.51704203833e-06,1.89117420542e-06,2.93504042962e-08,2.4137936621e-07
464,1,-2.21912182768e-06,-5.88315997174e-07,-4.20735810634e-07,-1.2041486037e-06,-5.39004719621e-07,-8.61506398199e-07,-1.33882471521e-07,-1.17145920453e-06,3.99997067376e-07,9.5641440651e-07,-9.53352082754e-07,-6.22026141538e-07
465,1,-1.05863384966e-06,6.71282490621e-07,8.24945354897e-07,-5.18091585299e-07,3.35294473235e-07,1.23395818631e-06,1.99212372556e-06,7.10235274249e-07,1.93642912563e-06,2.99508263249e-06,6.16886943039e-07,1.38515636999e-06
466,1,2.32040625012e-07,1.79307941842e-06,1.99046826477e-06,4.15042753715e-07,1.41524499837e-06,5.68911738972e-07,1.31508902174e-06,1.73247943365e-07,1.48398431136e-06,2.59122515597e-06,-4.39232673977e-08,8.55135601591e-07
467,1,-6.75710862654e-08,1.12858646238e-06,1.17363073167e-06,3.63066473911e-07,9.50039712348e-07,4.22482851119e-07,8.7593566756e-07,8.65846830621e-08,1.40566794915e-06,2.04662049359e-06,-2.61369140801e-07,5.34361962669e-07
468,1,1.23151479002e-07,1.46291647258e-06,1.1708797795e-06,3.05929153036e-07,5.35803387532e-07,9.87318892165e-07,1.0873071185e-06,1.9440742423e-07,1.92948353858e-06,2.34229029571e-06,-9.00727508489e-08,7.14533752655e-07
469,1,-1.33906671867e-06,6.04306341033e-07,1.00389027392e-07,-7.7285235337e-07,-1.91659096612e-07,-7.63679128089e-07,-8.97020157458e-07,-2.00666147252e-06,3.93180646822e-07,9.85251576417e-07,-1.88889274432e-06,-1.05588599807e-06
470,1,-1.89752691771e-06,-5.12452725522e-08,-4.61415558972e-07,-1.33355356116e-06,-2.74430432792e-07,-1.08486120985e-06,-1.48323480852e-06,-2.38939797785e-06,-3.93846634131e-07,5.03257784463e-07,-2.43070733762e-06,-1.5742641281e-06
471,1,-1.30705742921e-06,3.46467476584e-07,9.8910948877e-08,-1.296370533e-06,-8.35811866958e-08,1.22121831923e-06,7.63039611701e-07,-6.29769250705e-08,1.42725861964e-06,2.57089030407e-06,-4.93557600978e-07,6.48790564924e-07
472,1,-1.04678513779e-07,1.39665880944e-06,1.23772323391e-06,-1.75852464297e-07,1.21949588912e-06,1.40154390331e-06,9.14857939641e-07,2.25475415281e-07,1.61187754636e-06,2.80183589081e-06,-3.24411775767e-07,9.03330211327e-07
473,1,2.59449128973e-07,1.34934758136e-06,9.60980983878e-07,1.84168796911e-07,7.39701611978e-07,4.46860222069e-07,-1.36644467768e-07,-7.18376546908e-07,7.93324718476e-07,1.43893339558e-06,-1.25587912432e-06,-2.23461679517e-07
474,1,-3.44987036115e-07,8.53753595152e-07,1.59576766772e-07,-2.41405731388e-07,-5.65332995538e-07,2.05876920085e-06,1.63404577641e-06,6.98438935651e-07,2.69880496692e-06,3.02155709601e-06,3.35364401752e-07,1.48939451653e-06
475,1,7.7420588221e-07,2.65458707757e-06,1.848541872e-06,1.30546827433e-06,1.3502391601e-06,2.30716517312e-06,1.9649130581e-06,9.55428921264e-07,3.03416664279e-06,3.50807861131e-06,5.87085881033e-07,1.74650270088e-06
476,1,8.6887817654e-07,2.93172157829e-06,2.16393370327e-06,1.7911067476e-06,2.03206442538e-06,1.80138015518e-06,1.47243752345e-06,7.52549423144e-07,2.28456234411e-06,2.72808318579e-06,4.95643030008e-08,1.11661238651e-06
477,1,6.64583078811e-07,1.93440235032e-06,1.60452606274e-06,1.16432493668e-06,1.10347523062e-06,2.0156063567e-06,1.6673197847e-06,1.21070776982e-06,2.12307497465e-06,2.57997941616e-06,2.49557469649e-07,1.33426389361e-06
478,1,1.1340402405e-06,2.15068446484e-06,2.10753006937e-06,1.34890698674e-06,9.38847171931e-07,2.04272395807e-06,1.67889152004e-06,1.10496329366e-06,1.82577213627e-06,2.28647024804e-06,2.60394236256e-07,1.29673782639e-06
479,1,7.06736575704e-07,1.89837852389e-06,1.89765518459e-06,8.96838016309e-07,7.91991694491e-07,2.50820734324e-06,2.37414419554e-06,1.35442129242e-06,2.12230616909e-06,2.83308808095e-06,7.51349643407e-07,2.0149539954e-06
480,1,1.24682012816e-06,1.8670721168e-06,2.37380655352e-06,9.66383635986e-07,1.68380634163e-06,2.4571359532e-06,2.21903272395e-06,1.19081530854e-06,2.01195278244e-06,3.20441213177e-06,8.5538503143e-07,2.10097052084e-06
481,1,9.12419318093e-07,1.62972484025e-06,1.98080409792e-06,9.06637358666e-07,1.51702603766e-06,2.17828857774e-06,1.25673129789e-06,5.74937710644e-07,1.80036329959e-06,2.42336766916e-06,6.89470167331e-07,1.20896010379e-06
482,1,3.19657397699e-07,1.83480116968e-06,1.04040312755e-06,9.04370168856e-07,6.44100489054e-07,1.95936897856e-06,8.95170247958e-07,4.02727598422e-07,1.96498729357e-06,1.79629779742e-06,7.35411196896e-07,7.45641456527e-07
483,1,1.27083497687e-06,3.39098735666e-06,2.24395973111e-06,2.41242579785e-06,1.68154116107e-06,3.18873419018e-06,3.01962114024e-06,2.29974029574e-06,3.64602807339e-06,3.57158849856e-06,2.63487112387e-06,2.70395023997e-06
484,1,2.17899537491e-06,4.65564973256e-06,3.98949702894e-06,3.32071219984e-06,3.38444772001e-06,2.82973756999e-06,4.03367387232e-06,2.82322604564e-06,3.5153922944e-06,3.99323029254e-06,3.11187624396e-06,3.49374436522e-06
485,1,9.27308286276e-07,2.66841283185e-06,3.13394516116e-06,1.0345126764e-06,2.24223379095e-06,-2.0412972822e-06,7.55663427682e-07,-6.06987768394e-07,-8.76572494297e-07,3.5701713136e-07,-5.55595811805e-07,3.08813684434e-09
486,1,-1.82972201878e-06,-9.0974777444e-07,3.09533998085e-07,-2.43034154548e-06,-1.63053476747e-06,-3.70074315123e-06,7.98890618942e-08,-1.10559728081e-06,-1.54588900672e-06,-6.37588835295e-07,-6.25174753949e-07,-7.43840528401e-07
487,1,-1.22046137472e-06,-5.00062110575e-07,1.25767562491e-07,-1.80536842826e-06,-1.81330929219e-06,-3.42704755457e-06,6.10557358776e-07,-2.28351084634e-07,1.34220142321e-07,2.80951096983e-07,1.15274606747e-06,7.00507020362e-08
488,1,-1.07937002386e-06,-6.2843213932e-07,-2.58029433145e-07,-9.74509243577e-07,-5.94161984407e-07,-6.61318751112e-06,-1.75588159834e-06,-2.29237475501e-06,-1.59769530348e-06,-1.29549140817e-06,-4.75933781486e-07,-2.00913108107e-06
489,1,-2.16191906611e-06,-1.79059360415e-06,-1.31181924856e-06,-1.8367245291e-06,-1.11661318271e-06,-7.56139080913e-06,-1.58765267626e-06,-2.29427867087e-06,-1.75489337501e-06,-1.48663039351e-06,-7.78578436675e-08,-2.04853305514e-06
490,1,-2.19910639823e-06,-1.52243187228e-06,-1.35633269376e-06,-2.07264277469e-06,-2.01816561474e-06,-7.918910578e-06,-1.57534721055e-06,-2.33890550757e-06,-2.17236108694e-06,-1.80313050651e-06,-1.48911325816e-07,-2.14398267218e-06
491,1,-3.32193390409e-06,-2.17169597909e-06,-2.11774022896e-06,-2.75439116371e-06,-2.41935471744e-06,-8.14452551476e-06,-2.16614730737e-06,-2.90776892529e-06,-3.16093260331e-06,-1.87116617259e-06,-9.7035191159e-07,-2.51369228545e-06
492,1,-1.51932682571e-06,-8.2869153721e-08,9.50124258525e-08,-8.46778825271e-07,4.38499019818e-07,-3.7826227116e-06,7.47298970802e-07,-1.99534930625e-07,-2.67153374695e-07,1.45380394962e-06,2.13980439071e-06,4.22346729681e-07
493,1,1.11271424641e-07,1.73106021257e-06,1.74916442941e-06,8.66747807113e-07,1.6031186315e-06,-1.77552504404e-06,4.7296423013e-07,-1.79689063191e-07,-7.91591217999e-10,1.20669493663e-06,2.52460546051e-06,2.43052283624e-07
494,1,-1.34662142296e-06,-3.69947783692e-07,-6.71904934249e-07,-8.15511821302e-07,-7.22855419454e-07,-1.95509630376e-06,-1.77184952008e-06,-2.17046233144e-06,-1.89487948092e-06,-1.24084357432e-06,9.87906099444e-07,-1.71575106103e-06
495,1,-1.02835780464e-06,-1.23104723327e-06,-1.61572112243e-06,-1.36862202263e-06,-1.20948067203e-06,1.45433986389e-06,-1.52484283231e-07,-7.54372779821e-07,-1.90362201358e-07,9.921001936e-08,3.03425296717e-06,-3.47089360929e-09
496,1,8.71805144016e-07,4.39040264593e-07,3.8629050407e-08,4.85419456422e-07,2.63275347507e-07,3.70349291015e-06,5.75589003863e-07,1.428386059e-07,7.60962085216e-07,5.41966178996e-07,3.96115587293e-06,6.50663353521e-07
497,1,1.96213671682e-06,1.73320620569e-06,1.12499684413e-06,1.82050774121e-06,1.16552609962e-06,5.17326536996e-06,1.06483598348e-06,1.11873578507e-06,1.23293791075e-06,7.6442353066e-07,4.50249641485e-06,9.06391871966e-07
498,1,8.44306731832e-07,8.09152203188e-07,4.38583788847e-07,5.42410437091e-07,1.40190551817e-07,4.5593553044e-06,4.22660114998e-07,4.52955898924e-07,8.49542347766e-08,-1.50275346428e-07,3.52526935444e-06,-1.40723976618e-07
499,1,-6.6100907152e-07,-5.42723304258e-07,-2.44685666599e-07,-7.76804800318e-07,-8.49102941167e-07,2.93481060997e-06,-4.78643422527e-07,-7.94012279838e-07,-1.36256572627e-06,-1.26932487315e-06,2.17544024439e-06,-1.22709820087e-06
500,1,-9.39659836455e-08,2.01641779259e-07,4.06240602014e-07,9.41203950824e-08,-1.88593522176e-07,4.46622058411e-06,1.38000000958e-06,1.05501318459e-06,1.45520567459e-07,5.01544724309e-07,3.96610586487e-06,5.96677569365e-07
501,1,1.22629054166e-06,1.80120166159e-06,1.55777457717e-06,1.31131516213e-06,8.00152642574e-07,4.41604263606e-06,8.20812743092e-07,6.21762981649e-07,-2.26951426977e-07,1.83020023749e-07,3.79443132076e-06,2.2580533984e-07
502,1,1.1762678517e-06,1.55914835021e-06,1.10081522838e-06,1.14127912108e-06,1.26757318229e-06,4.53116329812e-06,2.90375718245e-07,5.31162123337e-07,-8.49225207981e-08,2.85752657372e-07,3.69229462635e-06,2.68046517255e-07
503,1,4.21502265199e-07,2.44614435332e-07,-5.43976612633e-07,2.21843513249e-07,7.13788466022e-07,4.83431782735e-06,4.02336728108e-07,1.17199146338e-06,5.46073453648e-07,6.57318109229e-07,4.0511022731e-06,8.17911065541e-07
504,1,1.7795982097e-06,1.07390464067e-06,2.95088154813e-07,1.49470253095e-06,1.18712527669e-06,4.60155667979e-06,2.85062757385e-07,1.01188944885e-06,3.84347957457e-07,4.33602058843e-07,3.79737753698e-06,8.35193838296e-07
505,1,1.52972252094e-06,5.67369245805e-07,2.96106586073e-07,1.28980244566e-06,6.55082521631e-07,4.28873130992e-06,-6.86514499574e-08,5.97560702057e-07,-1.28988238898e-07,7.50311531571e-08,3.06084469369e-06,3.21049360946e-07
506,1,-5.15197189708e-07,-6.73919901888e-07,-7.30449163989e-07,-5.34089493082e-07,-8.66216951911e-07,3.29939063267e-06,-9.41077481186e-07,-6.31236869049e-07,-5.43792709609e-07,-8.92581553684e-07,2.26221291488e-06,-8.38618424018e-07
507,1,-6.37746682551e-07,8.48729799703e-07,7.19393909981e-07,4.75811626972e-07,3.27732343035e-07,3.37383540434e-06,-7.03688787354e-08,-4.88852180049e-07,8.41893714928e-07,1.4015601793e-07,3.00529894453e-06,-1.09475864558e-07
508,1,-1.53052236789e-06,1.07768339061e-06,1.16078032697e-06,4.91763726369e-07,3.0544975018e-07,3.02575943409e-06,1.41476542793e-07,-4.99367111777e-07,1.02957786328e-06,3.30003899015e-07,2.75118203441e-06,-1.44043776054e-08
509,1,-1.2139074919e-06,1.76869922188e-06,1.91398778649e-06,5.50735034903e-07,2.14627148907e-07,3.78613001718e-06,1.00089228922e-06,3.94414996227e-07,1.85551355281e-06,8.4534996399e-07,3.72579999198e-06,7.98975239616e-07
510,1,-4.57835309685e-07,2.19961702658e-06,2.31238366383e-06,5.01490958624e-07,9.12397568658e-07,3.57924318244e-06,9.94241997968e-07,7.79017023345e-07,2.14273847697e-06,1.25079388831e-06,4.06958990247e-06,1.05261806824e-06
511,1,-1.53446614191e-06,5.50895485633e-07,8.23008599641e-07,-1.28960782238e-06,-5.93539853551e-08,1.884122555e-06,-3.49032671467e-07,-8.07233563318e-08,9.34424633e-07,1.86909616707e-07,2.6747997435e-06,-8.42538159606e-09
512,1,-1.03538186419e-06,8.03164951693e-07,1.04017115982e-06,-1.01545412907e-06,1.58487806645e-07,3.06970196983e-06,1.19115789753e-06,1.61485436035e-06,2.35125514637e-06,1.55789180588e-06,3.94832838173e-06,1.55380921791e-06
513,1,6.16252529485e-07,2.3099681543e-06,2.33143489007e-06,5.29951321968e-07,1.56029001515e-06,3.80224963331e-06,2.39295656607e-06,3.06695997738e-06,3.24549465277e-06,2.61547158938e-06,4.80228339632e-06,2.79638683776e-06
514,1,8.8784132784e-07,2.37954656096e-06,2.11823228576e-06,1.00898917078e-06,1.27449737308e-06,1.69083190155e-06,1.48563180157e-06,2.09642883218e-06,1.56810635847e-06,1.15188295618e-06,3.06483669194e-06,1.8633829425e-06
515,1,-8.3455862079e-07,2.55988853628e-07,1.68071870485e-07,-5.4327374005e-07,-9.81628311582e-07,-1.3672207407e-06,-6.82291794312e-07,-3.20265318176e-07,-1.45412446157e-06,-1.37780268699e-06,7.29668938702e-08,-5.10805131179e-07
516,1,-3.1034359985e-06,-2.36969025545e-06,-1.99585999657e-06,-3.02053289932e-06,-3.23301547838e-06,-2.87425037307e-06,-2.1814416454e-06,-1.78623957128e-06,-3.23722499967e-06,-2.86153646846e-06,-1.55775682273e-06,-1.93042417338e-06
517,1,-2.48641413697e-06,-2.19014813206e-06,-1.95975760715e-06,-2.26338913079e-06,-2.71953345737e-06,-1.38979880834e-06,-6.34327900633e-07,-1.21016820984e-07,-1.73363116997e-06,-1.33428991925e-06,-3.1876081585e-08,-2.22198893242e-07
518,1,3.44987757138e-07,9.01648237305e-08,5.59979162022e-08,5.48146283687e-07,-4.23119372905e-07,-3.83742535795e-07,5.8368827797e-07,1.02298138118e-06,-8.57943140613e-07,-3.36339365278e-07,8.42275022824e-07,8.84240480028e-07
519,1,8.05185800001e-07,1.58363446022e-07,5.62583693875e-08,7.4067638506e-07,-4.06220483492e-07,-1.17362584281e-06,-3.33470735011e-07,-5.21507127696e-08,-1.90940393754e-06,-1.43506956115e-06,-4.91016940615e-08,-6.17096918967e-09
520,1,7.13976563113e-07,-2.35735627338e-07,-7.64506932499e-07,6.81420566243e-07,-7.39010932293e-07,-1.00094031349e-06,-6.42150947803e-07,-8.27708329514e-08,-2.0808381017e-06,-1.54620945889e-06,-1.92728435936e-08,-7.91204149484e-08
521,1,1.23376643074e-06,-1.11447279333e-07,-8.81368204489e-07,1.00321834597e-06,-3.21690626314e-07,-1.15349505989e-06,-5.88023222968e-07,1.8899409689e-07,-2.42758314735e-06,-1.42853422774e-06,-1.70465643735e-07,1.08831515661e-07
522,1,1.23611136208e-06,-9.29323763848e-07,-1.33607387274e-06,5.38145194981e-07,-3.56723414849e-07,-2.38348816463e-06,-1.36339058942e-06,-4.55024003641e-07,-3.68812007655e-06,-2.34258482199e-06,-1.12679246656e-06,-7.45641159079e-07
523,1,1.09953039348e-06,-1.72448352609e-06,-2.0496076466e-06,3.58128094784e-08,-9.9893959929e-07,-2.59105741246e-06,-1.52373253978e-06,-3.3188351576e-07,-3.86401624321e-06,-2.65991669849e-06,-1.26564787571e-06,-1.0659837123e-06
524,1,7.35523830156e-07,-2.41952431737e-06,-2.8382755621e-06,-5.49630667817e-07,-1.7571139892e-06,-2.16682781755e-06,-8.9731385001e-07,2.13883708086e-07,-3.21624566047e-06,-2.28986121762e-06,-8.84434177067e-07,-5.37603433586e-07
525,1,2.11333631404e-06,-1.55228693001e-06,-1.55808915231e-06,8.88214851926e-07,8.83203715483e-08,-2.07223122097e-06,-5.96902234014e-07,5.45856514234e-07,-2.96774844708e-06,-2.04552834916e-06,-8.5581065874e-07,-2.74928554344e-07
526,1,2.54119046331e-06,-1.29125032239e-06,-1.17210484762e-06,1.23060384424e-06,4.65527359906e-07,-2.30993179546e-06,-8.2247330027e-07,4.56325136684e-07,-3.14011918542e-06,-2.31280086432e-06,-1.29173115999e-06,-4.36601042854e-07
527,1,1.40465334022e-06,-2.37663367813e-06,-2.50147744821e-06,-8.43889263224e-08,-9.21595175569e-07,-3.02415718513e-06,-1.73729063216e-06,-6.27451426082e-07,-3.76906055497e-06,-3.01073957309e-06,-2.35802748368e-06,-1.23186617453e-06
528,1,7.32674909061e-07,-2.92885210864e-06,-2.90028288126e-06,-4.32816594399e-07,-9.86166331455e-07,-3.34992554309e-06,-2.09765085121e-06,-1.17561635159e-06,-4.01319618281e-06,-3.06678037471e-06,-2.92846568881e-06,-1.57735388823e-06
529,1,8.03431622463e-07,-2.39007598248e-06,-2.39248677466e-06,-9.42907103912e-08,-7.26239652849e-07,-1.88336304064e-06,-6.61475035583e-07,1.45661416126e-07,-2.56980155333e-06,-1.89019160174e-06,-1.74989164968e-06,-2.11810953998e-07
530,1,2.15025466466e-06,-7.48835812566e-07,-1.22926939613e-06,1.18525768242e-06,2.76632426356e-07,-1.68805223016e-06,-9.05940395235e-07,7.17898955224e-08,-2.54180273529e-06,-2.17574945958e-06,-2.08441716672e-06,-4.39443348648e-07
531,1,1.37510587625e-06,-1.56851118944e-06,-2.29851519402e-06,3.46647771609e-07,-7.25303399618e-07,-1.7631116159e-06,-1.36671779572e-06,-1.26524194722e-07,-2.72901148602e-06,-2.45298702868e-06,-2.35079263295e-06,-7.04964906915e-07
532,1,3.39449046921e-06,7.39626588338e-08,-3.98012510948e-07,2.31921054232e-06,1.24811636025e-06,1.12370361636e-06,1.0985102319e-06,2.58755886382e-06,7.36778854268e-08,2.72093184758e-07,3.37702325556e-07,1.92161464091e-06
533,1,5.31315584862e-06,1.83574265827e-06,1.64647722281e-06,4.37197769131e-06,3.63577892992e-06,1.04720998533e-06,8.70947628821e-07,2.51749426448e-06,-1.49566577008e-07,3.37473245024e-07,-5.72564822388e-08,1.72508789331e-06
534,1,2.3027612812e-06,-9.95296186233e-07,-1.15339311642e-06,1.35110757901e-06,9.28664746546e-07,-4.45110654094e-07,5.17689905674e-08,1.29696565252e-06,-1.50739041629e-06,-1.03074397945e-06,-1.44490830689e-06,7.03788565797e-07
535,1,3.52172731324e-06,1.42042655515e-07,-1.70933808811e-07,2.43330153902e-06,1.20125408957e-06,-9.13542461734e-07,2.38825232688e-07,1.183492341e-06,-1.45676059686e-06,-1.37476078941e-06,-1.776874949e-06,5.29012305348e-07
536,1,2.60286346436e-06,-9.00426325305e-07,-1.34127260344e-06,1.75656519377e-06,1.5661879784e-08,-2.60342902035e-06,-1.2689831642e-06,-3.7339308791e-07,-2.83009248188e-06,-2.64561518653e-06,-3.53676201712e-06,-1.04855732268e-06
