Timestamp,Filename,1/Fp1,2/Fp2,3/Cz,4/Pz,5/P7,6/P8,7/O1,8/O2,9/CP5,10/CP6,11/CP1,12/CP2,13/PO3,14/PO4,15/P3,16/P4
0.16100001335144043,car (1).jpg,0.10476821419813802,0.14165912022103314,0.13870471134241955,0.13807624734356969,0.1391903923976889,0.13764195294880305,0.14027002635836916,0.13939140163557548,0.1394382061884649,0.14015104802263356,0.13418483098564518,0.14113707287753496,0.1311455972368237,0.13957055086738476,0.1401417273451957,0.13416082521210018
0.16100001335144043,car (1).jpg,0.10482264069588669,0.14167282184038424,0.13871975406643797,0.13805852241021663,0.13919848372918173,0.13765690626584365,0.14028448793703174,0.13940550558632678,0.13944209539200011,0.1401501316011109,0.1342088814626791,0.14113691641532378,0.13119564279265913,0.1395816820361235,0.14014680119118705,0.1340882938013427
0.16100001335144043,car (1).jpg,0.10473739114253415,0.1416577344128769,0.1387043313627638,0.1380756438464694,0.13919741084544787,0.13764311523951472,0.14027219447758132,0.13939692251645594,0.1394327970663067,0.1401442754440636,0.13417115171803853,0.141129808560587,0.1311318509139837,0.13957256252438574,0.14013649703699316,0.13438753895611036
0.16100001335144043,car (1).jpg,0.10482080785284136,0.141668195029282,0.13871376379892394,0.13806791014288786,0.13919090648781138,0.13765156419891883,0.14027702245438367,0.1393988447664791,0.13944254242688922,0.14015399845290166,0.1342104237330465,0.14114091737758128,0.1311898089873563,0.13957627291396532,0.14014733763305398,0.133989633201317
0.16200017929077148,car (1).jpg,0.1047706728900281,0.1416627859071238,0.13871119334831158,0.13806055641896206,0.13920013775827142,0.13764944078319558,0.14027878824219564,0.13940215282465848,0.13943181358955067,0.14013951452249462,0.1341933693520271,0.14112643344717424,0.13116511030973318,0.13957587058256513,0.1401360723538485,0.13436994813322403
0.16200017929077148,car (1).jpg,0.10477565732904164,0.14165679563960978,0.13870276674065193,0.13807477212843564,0.13918840309243238,0.13764016480924662,0.14026736650077898,0.1393895911442746,0.13943585925529708,0.14014861168248793,0.13420624395683337,0.14113492711006725,0.13116084112654222,0.13956869567259497,0.14013935806028344,0.13419714679684006
0.16200017929077148,car (1).jpg,0.10483482239661483,0.1416703407967497,0.13871841296177065,0.13805771774741624,0.13919698616230322,0.1376549840158205,0.14028269979747532,0.1394035386328147,0.13944216244723348,0.14014963986273288,0.13423720112290397,0.14113709522927942,0.13121368065043457,0.1395820843675237,0.14014646591502022,0.13411688168250105
0.16200017929077148,car (1).jpg,0.1047574183055661,0.14165482868609772,0.1387026326301852,0.1380735874859795,0.1391952427262357,0.13764054478890236,0.1402697581374357,0.13939517908038843,0.1394285502348602,0.1401385310457386,0.13420020898583043,0.1411247570663401,0.13115026875141486,0.1395677345475834,0.14013151259797962,0.134422474732694
0.16300010681152344,car (1).jpg,0.10484222082402954,0.14166381408736875,0.13870980754015536,0.1380650938230865,0.13918728550520962,0.13764704914653886,0.14027266386421489,0.1393942850106102,0.13944263183386704,0.1401529255691678,0.13422285130296366,0.1411402021217587,0.1311895631181673,0.13957546825116493,0.14014655532199805,0.13401940572493146
0.16300010681152344,car (1).jpg,0.10479479042229538,0.1416621824100235,0.13871047809248901,0.13806129402652909,0.13919973542687122,0.1376491725622621,0.14027782711718406,0.1394018399002361,0.13943051718837227,0.14013694407188226,0.13419359286947166,0.14112413121749534,0.1311607070160755,0.13957372481509742,0.140134328917781,0.13437978290078437
0.16300010681152344,car (1).jpg,0.10479919371595307,0.14165610273553167,0.13870100095283996,0.13807553208774712,0.13918797840928773,0.1376391813324906,0.1402662042100673,0.139390395807075,0.1394365968628641,0.14014713646735388,0.1341933693520271,0.14113383187458894,0.13114483727751222,0.1395679804167724,0.1401392239498167,0.13420494755565496
0.16300010681152344,car (1).jpg,0.10484125969901796,0.14166902204382684,0.13871595426988056,0.13805805302358307,0.13919595798205828,0.13765259237916377,0.14028068814047434,0.13940061055429107,0.13944001667976577,0.14014534832779746,0.13422548880880938,0.1411334518949332,0.1312093667637547,0.13957819516398848,0.14014398487138569,0.13411238898186553
0.16300010681152344,car (1).jpg,0.10475837943057768,0.1416536887471305,0.13870035275225076,0.1380733863202794,0.1391949968570467,0.13763909192551277,0.1402689087711464,0.13939412854839903,0.13943011485697207,0.14013868750794978,0.13418290873562203,0.14112527115646256,0.13114463611181212,0.13956936622492863,0.1401326748886913,0.134422720601883
0.1640000343322754,car (1).jpg,0.10483600703907096,0.14166452934319132,0.1387096287261997,0.13806782073591004,0.13918878307208812,0.13764805497503935,0.14027434024504903,0.13939558141178862,0.13944138013617755,0.14015100331914465,0.13421201070690283,0.14113852574092456,0.13119030072573432,0.13957455182964226,0.14014521421733073,0.13403107333553713
0.1640000343322754,car (1).jpg,0.10478839782338116,0.14166211535479015,0.13870969578143308,0.13806232220677403,0.13920027186873815,0.13764923961749548,0.14027863177998445,0.13940306924618115,0.13943141125815048,0.140137569920727,0.13419415166308304,0.14112509234250692,0.13117127939120285,0.13957580352733176,0.1401349771183702,0.1343946691625916
0.1640000343322754,car (1).jpg,0.1047948798292732,0.14165435929946416,0.13869925751677245,0.1380756885499583,0.1391869949325317,0.13763904722202386,0.14026566776820037,0.1393905969727751,0.13943306528724017,0.14014485658941944,0.13418744613974645,0.14113119436874322,0.13113983048675423,0.13956670636733845,0.14013551356023712,0.1342266287477766
0.1640000343322754,car (1).jpg,0.10485328493753492,0.14166707744205922,0.13871316030182365,0.1380580306718386,0.13919336517970146,0.13765236886171922,0.1402785647247511,0.13940081171999116,0.1394369544907754,0.14014385076091895,0.13421218952085848,0.14113139553444332,0.13119662626941517,0.1395770775767657,0.14014094503413976,0.1341245036273603
0.1640000343322754,car (1).jpg,0.10477109757317275,0.14165116300000705,0.1386973352667493,0.13807226873305664,0.13919182290933405,0.13763759435863426,0.14026627126530067,0.13939140163557548,0.13942678444704823,0.1401364299817598,0.13417285045061714,0.14112279011282802,0.13113232030061725,0.13956646049814944,0.1401294785892342,0.1344313260234983
0.16500020027160645,car (1).jpg,0.10484286902461874,0.1416623835757236,0.1387070359238429,0.13806694901787628,0.13918670435985378,0.13764640094594965,0.14027197096013677,0.13939336858908755,0.1394380497262537,0.14014838816504338,0.13420168420096448,0.14113566471763428,0.13118004127502933,0.13957124377146288,0.14014166028996233,0.13404001403331925
0.16500020027160645,car (1).jpg,0.10481121895447003,0.1416597907733668,0.13870649948197597,0.13805946118348375,0.1391970532175366,0.13764704914653886,0.14027581546018308,0.1393999400019574,0.13942676209530377,0.1401334795514917,0.1341800253605873,0.14112062199361586,0.13115710838521819,0.13957061792261813,0.1401301714933123,0.13439364098234666
0.16500020027160645,car (1).jpg,0.10480607805324531,0.14165020187499547,0.13869429542950337,0.13807094998013378,0.1391817869760736,0.13763428630045488,0.14026057157046457,0.13938509844363908,0.13942785733078208,0.14013993920563927,0.1341747727006403,0.14112638874368533,0.13113071097501647,0.139561431355647,0.14013028325203458,0.1342352788728808
0.16500020027160645,car (1).jpg,0.10486497489988504,0.1416652445990139,0.1387104333890001,0.13805474496540368,0.13918958773488851,0.13764944078319558,0.14027583781192754,0.13939833067635662,0.13943623923495282,0.14014304609811856,0.13420438876204357,0.14113101555478758,0.13119009956003422,0.1395757364720984,0.14013969333645027,0.13412298370873735
0.16500020027160645,car (1).jpg,0.10477959123606577,0.14165207942152971,0.13869771524640503,0.13807077116617814,0.13919108530176702,0.1376373708411897,0.14026662889321195,0.13939111106289756,0.13942508571446963,0.14013406069684753,0.13416967650290448,0.14112115843548279,0.13113571776577446,0.1395642253237039,0.14012735517351094,0.13443525993052244
0.628000020980835,car (1).jpg,0.10485860465271528,0.141660193104767,0.13870462193544172,0.1380632386282967,0.139182591638874,0.1376436740331261,0.14026946756475778,0.13939117811813093,0.13943395935701838,0.14014373900219668,0.13420420994808793,0.1411317084588657,0.1311891607867671,0.13956690753303855,0.1401375252172381,0.1340437914781322
0.629000186920166,car (1).jpg,0.10481204596901487,0.14165460516865316,0.1387015820981958,0.1380523309770025,0.13919126411572266,0.13764168472786958,0.14027089807640292,0.13939495556294387,0.13942457162434715,0.14013070793517923,0.13419017305257,0.14111854328138151,0.13118352814716436,0.13956856156212824,0.1401282715950336,0.1343950267905029
0.629000186920166,car (1).jpg,0.10479474571880647,0.14164941956393953,0.13869369193240308,0.1380689830266217,0.139182345769685,0.1376345321696439,0.14026144328849832,0.13938657365877313,0.1394272985371707,0.14013906748760552,0.13418210407282163,0.1411260087640296,0.13115798010325194,0.13956136430041363,0.1401308196939015,0.13424055388457226
0.629000186920166,car (1).jpg,0.10485630242303638,0.14166140009896758,0.13870670064767607,0.13805007345081252,0.13918701728427615,0.13764586450408273,0.1402734014717819,0.13939455323154368,0.1394316571273395,0.14013848634224968,0.13421279301795877,0.14112663461287434,0.1312075115689649,0.13957046146040694,0.14013640763001534,0.13411661346156759
0.629000186920166,car (1).jpg,0.10478350279134545,0.14164836903195013,0.13869355782193635,0.13806502676785312,0.13918782194707655,0.1376332804719544,0.14026260557921,0.13938746772855135,0.13942104004872322,0.14013068558343478,0.13418179114839926,0.14111735863892538,0.1311418421437552,0.13956060434110215,0.14012424828103165,0.134435729317156
0.629000186920166,car (1).jpg,0.10486680774293038,0.14165719797100998,0.13870055391795086,0.13805809772707198,0.139179596505117,0.13763936014644623,0.14026642772751186,0.13938690893493996,0.13943297588026235,0.1401432249120742,0.13420999904990186,0.14113079203734302,0.13117843194942855,0.13956570053883796,0.1401368770166489,0.13404332209149863
0.629000186920166,car (1).jpg,0.10483357069892534,0.14165695210182097,0.13870265498192966,0.1380527333084027,0.13919231464771206,0.13764280231509235,0.14027398261713775,0.13939640842633347,0.13942452692085824,0.1401307749904126,0.13419198354387088,0.14111776097032558,0.1311525933328382,0.13956768984409448,0.14012791396712232,0.1343846108775867
0.630000114440918,car (1).jpg,0.10482474175986549,0.1416488831220726,0.13869159086842428,0.13806766427369885,0.13918046822315075,0.1376325205126429,0.14026289615188792,0.13938351146978276,0.1394266503365815,0.14013786049340493,0.13417723139253038,0.14112352772039505,0.1311176352045101,0.13955857033235672,0.14012898685085617,0.13423655292231476
0.630000114440918,car (1).jpg,0.10487606136513487,0.14166090836058956,0.13870484545288628,0.13804980522987906,0.13918623497322022,0.13764519395174907,0.14027635190205,0.13939272038849834,0.1394310983337281,0.14013774873468265,0.1341878708228911,0.14112368418260623,0.131154448527628,0.13956840509991705,0.14013439597301436,0.13409037251357706
0.630000114440918,car (1).jpg,0.10478435215763475,0.14164579858133777,0.1386891768800231,0.13806451267773065,0.13918632438019804,0.1376320287742649,0.14026459488446652,0.1393851878506169,0.13941871546729986,0.14012820453980024,0.13413453956062074,0.14111186010978938,0.13107746911972393,0.13955673748931138,0.1401206720019188,0.1343994747876495
0.630000114440918,car (1).jpg,0.10485178737065641,0.1416533311192192,0.1386943848364812,0.1380577400991607,0.13917642255740434,0.13763696850978951,0.1402666512449564,0.1393822374203488,0.13943018191220544,0.14014103444111758,0.13415255506665172,0.14112473471459563,0.1311070851811272,0.13956049258237987,0.14013249607473566,0.1339844252448589
0.630000114440918,car (1).jpg,0.10481396821903803,0.14165382285759723,0.13869749172896048,0.1380519286456023,0.13918931951395505,0.1376412823964694,0.14027389321015993,0.13939178161523122,0.13942267172606845,0.14013010443807894,0.1341379146740335,0.14111297769701214,0.1310900308001078,0.13956375593707035,0.14012465061243184,0.1343186061762102
0.630000114440918,car (1).jpg,0.10479608682347379,0.1416461785609935,0.13868756755442233,0.13806759721846548,0.1391780989382385,0.1376311794079756,0.1402615103437317,0.13938100807440376,0.1394266503365815,0.14013931335679453,0.13413373489782035,0.14112097962152714,0.13106962365742011,0.13955749744862286,0.14012804807758905,0.13417745490997493
0.630000114440918,car (1).jpg,0.10484870282992158,0.14166119893326748,0.13870366081043015,0.138051079279313,0.1391857879383311,0.137645976262805,0.140276106032861,0.13939301096117626,0.13943179123780622,0.14013980509517254,0.13416558613366916,0.14112236542968337,0.13112796171044847,0.13956784630630567,0.1401346194904589,0.1340305368936702
0.630000114440918,car (1).jpg,0.10476018992187856,0.14164530684295976,0.13868758990616678,0.13806359625620798,0.13918453624064162,0.13763093353878658,0.1402630526140991,0.13938422672560533,0.13941952013010026,0.1401301267898234,0.13412669409831693,0.1411113460196669,0.13106501919806232,0.13955635750965564,0.14012143196123028,0.134360962731953
0.6310000419616699,car (1).jpg,0.1048315366901799,0.14165491809307554,0.13869525655451495,0.13805850005847217,0.1391772942754381,0.1376364767714115,0.14026604774785612,0.13938237153081554,0.13943009250522762,0.1401419732143847,0.13415233154920717,0.1411239077000508,0.131106682849727,0.13955895031201246,0.1401329207578803,0.133955367977067
0.6310000419616699,car (1).jpg,0.1047843298058903,0.1416523923459521,0.13869559183068178,0.1380486876426563,0.1391880007610322,0.1376372814342119,0.14026998165488025,0.13938780300471817,0.13942057066208965,0.14012894214736726,0.13413673003157736,0.14111060841209988,0.13109687043391113,0.13956089491378007,0.14012360008044245,0.13430052361494585
0.6310000419616699,car (1).jpg,0.1047553172415873,0.1416453291947042,0.1386864276154551,0.13806636787252044,0.1391779424760273,0.13762865366085214,0.14025853756171913,0.13937785647843556,0.13942213528420153,0.14013625116780415,0.13412937630765157,0.14111673279008063,0.13107261879117713,0.13955224478867587,0.14012413652230937,0.1341765161367078
0.6310000419616699,car (1).jpg,0.10480169711133207,0.14165516396226455,0.1386981846330386,0.13804584897111047,0.13918080349931758,0.13763931544295732,0.14026946756475778,0.13938635014132858,0.1394258456737811,0.14013524533930366,0.13415628780797575,0.14111713512148083,0.13112796171044847,0.13956149841088036,0.14012878568515608,0.1340242337017338
0.6310000419616699,car (1).jpg,0.10471396651434499,0.14164030005220177,0.138683477185187,0.1380594388317393,0.1391799988365172,0.13762579263756186,0.14025668236692934,0.13937837056855804,0.13941451333934227,0.14012621523454372,0.13411913920869104,0.1411070544847315,0.13106381220386173,0.13955168599506448,0.14011597813558319,0.1343746196478152
0.632000207901001,car (1).jpg,0.10478272048028951,0.1416507383168624,0.13869250728994695,0.13805597431134872,0.13917306979573604,0.13763303460276538,0.14026097390186476,0.13937901876914724,0.13942781262729317,0.1401404309440173,0.13414158036012416,0.1411222536709611,0.1311056323177376,0.13955684924803366,0.14012999267935666,0.13397255646855313
0.632000207901001,car (1).jpg,0.10473993924140206,0.14165192295931853,0.13869581534812633,0.13804942525022332,0.13918661495287596,0.1376371696754896,0.14026884171591303,0.13938715480412897,0.1394177990457772,0.1401258799583769,0.13412117321743647,0.1411079038510208,0.13109915031184557,0.13955774331781187,0.14012004615307405,0.1343100007545949
0.632000207901001,car (1).jpg,0.10471857097370278,0.14164099295627988,0.13868329837123136,0.13806357390446353,0.13917362858934743,0.13762463034685019,0.1402552071517953,0.1393729837981443,0.13942021303417837,0.1401338818828919,0.13413228203443076,0.14111527992669104,0.13109307063735373,0.13954992020725251,0.14012158842344147,0.1341960739131062
0.632000207901001,car (1).jpg,0.1047765737505643,0.14165549923843138,0.13869965984817265,0.13804685479961096,0.13918011059523946,0.13763940484993514,0.1402693558060355,0.13938601486516175,0.13942566685982546,0.14013470889743673,0.13415970762487742,0.14111767156334776,0.1311401434111766,0.13956114078296908,0.1401282715950336,0.1340336884896384
0.632000207901001,car (1).jpg,0.1046995049356824,0.14164170821210245,0.13868575706312145,0.1380619869306072,0.1391810493685066,0.1376261726172176,0.14025802347159666,0.1393797340249698,0.13941453569108672,0.14012574584791015,0.13412347544711536,0.14110759092659841,0.13107807261682422,0.13955146247761993,0.140115821673372,0.13438487909852018
0.632000207901001,car (1).jpg,0.10477894303547657,0.14165116300000705,0.13869351311844744,0.13805825418928316,0.13917311449922495,0.13763236405043172,0.14026079508790912,0.13937935404531407,0.13942611389471457,0.14013850869399413,0.1341585676859102,0.14112109138024942,0.13112601710868085,0.13955548579162189,0.14012833865026697,0.1339835311750807
0.6330001354217529,car (1).jpg,0.1047458177501938,0.14165176649710734,0.1386960835690598,0.13805031932000153,0.13918583264182002,0.13763585092256675,0.140268104108346,0.13938717715587343,0.13941648029285433,0.14012496353685422,0.13413898755776735,0.1411073003539205,0.13111490829168657,0.13955736333815613,0.14011886151061792,0.13431547693198645
0.6330001354217529,car (1).jpg,0.10472590234588412,0.141641931729547,0.1386838795165872,0.1380659431893758,0.1391735391823696,0.13762398214626098,0.14025402250933916,0.13937425784757826,0.13941811197019957,0.14013211609507992,0.1341343607466651,0.1411130447522455,0.13108837677101812,0.1395486238060741,0.14011968852516277,0.13419468810494997
0.6330001354217529,car (1).jpg,0.10478283223901179,0.14165447105818643,0.1386980281708274,0.13804725713101115,0.13917841186266086,0.13763685675106724,0.14026662889321195,0.13938407026339414,0.13942233644990162,0.14013200433635764,0.13416925181975983,0.14111396117376818,0.13115091695200407,0.13955796683525643,0.1401256787926768,0.13402740764944646
0.6330001354217529,car (1).jpg,0.10469566043563609,0.14163864602311207,0.13868265017064216,0.1380605340672176,0.13917843421440532,0.13762230576542683,0.1402550506895841,0.13937535308305657,0.1394110488189517,0.1401225719001975,0.13413324315944233,0.141103299391663,0.1310895837652187,0.1395479756054849,0.14011318416752627,0.1343835603455973
0.6340000629425049,car (1).jpg,0.10476546493357002,0.1416488831220726,0.13869116618527963,0.1380570918985715,0.13917192985676882,0.1376290783439968,0.1402586046169525,0.13937407903362262,0.13942278348479073,0.14013564767070386,0.13416037817721108,0.14111711276973637,0.13113093449246102,0.1395513283671532,0.14012549997872115,0.13397736209361102
0.6340000629425049,car (1).jpg,0.10473220553782052,0.14164830197671677,0.13869299902832496,0.1380464301164663,0.13918285985980747,0.13763169349809806,0.14026381257341058,0.13938290797268246,0.13941337340037505,0.14012201310658612,0.134144910770048,0.1411033440951519,0.1311196468615111,0.1395543235009102,0.14011593343209428,0.13430877140864986
0.6340000629425049,car (1).jpg,0.104711708988155,0.14163965185161256,0.1386819796183085,0.13806339509050788,0.13917213102246892,0.13762096466075951,0.1402512508930267,0.1393708380306766,0.1394163908858765,0.1401299256241233,0.13413384665654263,0.14111056370861097,0.13109020961406345,0.13954594159673947,0.1401174757024617,0.13419435282878314
0.6340000629425049,car (1).jpg,0.10477751252383143,0.1416536887471305,0.13869720115628256,0.13804506666005453,0.13917780836556057,0.13763569446035556,0.14026533249203355,0.13938190214418197,0.13942293994700192,0.1401325184264801,0.13416672607263638,0.1411144976156351,0.13115176631829337,0.13955857033235672,0.14012558938569897,0.13401766228886394
0.6340000629425049,car (1).jpg,0.10469704624379232,0.141641931729547,0.1386858241183548,0.13806151754397364,0.1391816975690958,0.1376261726172176,0.14025692823611835,0.13937980108020318,0.13941223346140783,0.140123823597887,0.13412307311571517,0.14110493106900823,0.13108511341632764,0.1395505237043528,0.14011345238845974,0.13438034169439575
0.6349999904632568,car (1).jpg,0.10477518794240807,0.1416498889505731,0.13869217201378012,0.13805680132589357,0.13917253335386912,0.13763093353878658,0.1402582022855523,0.13937707416737963,0.13942358814759112,0.14013600529861514,0.13415669013937595,0.14111847622614815,0.13112910164941569,0.139553429431132,0.1401254776269767,0.13397673624476628
0.6349999904632568,car (1).jpg,0.10474163797398066,0.14165042539244002,0.13869577064463742,0.13804739124147788,0.13918471505459726,0.1376347780388329,0.1402658018786671,0.13938480787096116,0.1394129934207193,0.14012100727808563,0.1341497610985948,0.14110383583352992,0.13112606181216976,0.13955510581196615,0.14011528523150507,0.13430503866732582
0.6349999904632568,car (1).jpg,0.10471868273242506,0.14163815428473406,0.13868159963865276,0.13806294805561878,0.1391711922492018,0.13762069643982605,0.1402499991953372,0.13937139682428798,0.1394150944846981,0.1401284727607337,0.1341480623660162,0.14111047430163315,0.13110522998633742,0.1395466792043065,0.14011664868791684,0.13420514872135506
0.6349999904632568,car (1).jpg,0.10478734729139176,0.14165435929946416,0.13869901164758344,0.13804739124147788,0.13917881419406106,0.1376367226406005,0.14026589128564493,0.13938366793199394,0.13942191176675697,0.14013093145262379,0.1341798688983761,0.14111422939470164,0.13116571380683348,0.13955821270444543,0.14012516470255432,0.13401350486439526
0.6360001564025879,car (1).jpg,0.10469992961882706,0.14163781900856723,0.1386830748537868,0.13805941647999484,0.13917935063592798,0.13762228341368238,0.14025370958491679,0.13937604598713468,0.13940852307182824,0.1401191744350403,0.13414267559560247,0.14110126538291756,0.1311057440764599,0.13954739446012907,0.14011030079249154,0.1343890141712444
0.6360001564025879,car (1).jpg,0.10477060583479474,0.14164626796797133,0.1386897356736345,0.1380564884014712,0.13917101343524615,0.13762771488758502,0.14025567653842885,0.13937396727490034,0.1394193413161446,0.14013160200495745,0.13417179991862774,0.1411144529121462,0.13114702774846884,0.13955009902120816,0.14012178958914157,0.13398031252387912
0.6360001564025879,car (1).jpg,0.10474313554085916,0.14164642443018252,0.13869235082773576,0.13804562545366592,0.13918252458364064,0.1376314252771646,0.14026186797164297,0.13938132099882614,0.1394106017840626,0.140118816807129,0.13415660073239813,0.14110133243815093,0.1311405010390879,0.13955356354159873,0.14011300535357063,0.1343087937603943
0.6360001564025879,car (1).jpg,0.10471521821203449,0.14163681318006674,0.1386800350165409,0.13806361860795244,0.13917137106315744,0.13761993648051457,0.14024881455288107,0.13936929576030918,0.1394131498829305,0.14012630464152154,0.1341417591740798,0.14110785914753188,0.13110632522181573,0.139545427506617,0.14011434645823795,0.13421279301795877
0.6360001564025879,car (1).jpg,0.10478296634947852,0.14165091713081804,0.13869469776090357,0.13804535723273245,0.1391760872812375,0.1376339733760325,0.1402624491169988,0.1393805833912591,0.1394174414178659,0.14012666226943282,0.1341708164418717,0.14110917790045474,0.13116473033007744,0.1395543235009102,0.1401198226356295,0.13400639700965847
0.6370000839233398,car (1).jpg,0.10470109190953873,0.1416347791713213,0.13867813511826219,0.1380567342706602,0.13917546143239276,0.13761890830026963,0.1402495521604481,0.13937200032138827,0.13940418683340391,0.14011544169371626,0.13412843753438444,0.14109677268228205,0.13109526110831035,0.13954366171880503,0.14010538340871137,0.13438834361891075
0.6370000839233398,car (1).jpg,0.1047799265122326,0.14164365281387006,0.13868481828985432,0.1380537391369032,0.1391665430863551,0.13762409390498326,0.14025078150639314,0.13936976514694274,0.13941688262425453,0.14012979151365657,0.1341550137585418,0.14111186010978938,0.13113062156803865,0.1395479756054849,0.1401186156414289,0.13397870319827834
0.6370000839233398,car (1).jpg,0.10475440082006464,0.1416460891540157,0.1386897356736345,0.13804410553504295,0.13917950709813917,0.13763003946900837,0.14026003512859764,0.1393813433505706,0.13940713726367202,0.14011579932162754,0.1341381605432225,0.1410975996968269,0.13112076444873386,0.13955083662877518,0.14010909379829095,0.13430059067017922
0.6370000839233398,car (1).jpg,0.10472914334883014,0.14163556148237724,0.13867625757172794,0.13806176341316265,0.13916748185962222,0.13761725427117993,0.1402449477010903,0.13936790995215295,0.13940952890032873,0.14012313069380888,0.13412468244131595,0.14110401464748556,0.1310844875674829,0.1395420300414598,0.140110323144236,0.13420584162543317
0.6370000839233398,car (1).jpg,0.10479724911418546,0.14164986659882864,0.13869161322016874,0.13804379261062058,0.13917295803701377,0.13763171584984252,0.14025958809370853,0.13937861643774704,0.1394163461823876,0.14012594701361025,0.13416033347372217,0.1411077920922985,0.13115136398689317,0.13955336237589863,0.14011866034491782,0.13398885089026105
0.6380000114440918,car (1).jpg,0.1047047575956294,0.14163547207539942,0.13867768808337308,0.13805787420962742,0.1391756402463484,0.1376194223903921,0.14024970862265929,0.13937320731558886,0.13940246574908086,0.14011398883032666,0.13411951918834678,0.14109455985958097,0.1310922883262978,0.1395424770763489,0.14010370702787722,0.13438034169439575
0.6380000114440918,car (1).jpg,0.10477049407607246,0.1416402329969684,0.13868086203108573,0.1380529791775917,0.13916392793225382,0.13762183637879327,0.14024841222148088,0.13936862520797552,0.13941276990327475,0.14012659521419946,0.13414500017702582,0.14110765798183178,0.13112577123949185,0.13954451108509433,0.14011490525184933,0.1339681755266399
0.6380000114440918,car (1).jpg,0.10474995282291803,0.14164199878478037,0.13868524297299897,0.13804102099430812,0.13917602022600414,0.1376265749486178,0.14025603416634014,0.1393773423883131,0.13940293513571442,0.1401124242082148,0.13413462896759856,0.14109350932759157,0.13111676348647636,0.13954625452116184,0.1401052716499891,0.13428172579785894
0.6380000114440918,car (1).jpg,0.10472292956387157,0.1416301300084746,0.1386714295949256,0.13805747187822723,0.139163592656087,0.13761264981182214,0.14024043264871033,0.1393626349404615,0.1394045891648041,0.14011953206295158,0.134126403525639,0.14109985722301688,0.13108055366045876,0.13953764909954655,0.14010600925755612,0.13420219829108695
0.6380000114440918,car (1).jpg,0.104789224837926,0.14164765377612756,0.13869031681899033,0.1380413339187305,0.13917141576664635,0.1376299277102861,0.14025724116054072,0.1393762918563237,0.1394136416213085,0.14012371183916472,0.13416813423253707,0.14110575808355308,0.13114526196065687,0.13954980844853024,0.14011629106000556,0.13397720563139984
0.6380000114440918,car (1).jpg,0.10470310356653971,0.14163305808699825,0.13867594464730557,0.1380529791775917,0.13917327096143614,0.1376162707944239,0.14024617704703535,0.13936891578065344,0.1394013481618581,0.14011231244949252,0.13412229080465923,0.14109335286538038,0.13107930196276926,0.13953983957050317,0.14010263414414337,0.13436583541224426
0.6380000114440918,car (1).jpg,0.10478453097159039,0.14164130588070226,0.13868148787993048,0.13805049813395717,0.1391639949874872,0.13762074114331496,0.14024731698600257,0.1393658312399186,0.1394123452201301,0.14012536586825441,0.13416404386330175,0.14110712153996485,0.13113377316400684,0.1395423206141377,0.14011445821696022,0.13396220761087033
0.6390001773834229,car (1).jpg,0.10475178566596337,0.14164079179057978,0.138685734711377,0.1380381376192734,0.13917552848762613,0.13762583734105077,0.1402556541866844,0.1393780352923912,0.13940347157758134,0.14011235715298143,0.13415514786900853,0.14109417987992523,0.13113276733550636,0.1395468803700066,0.14010603160930057,0.1342794906234134
0.6390001773834229,car (1).jpg,0.10472107436908178,0.14163026411894133,0.13867281540308182,0.1380569801398492,0.13916466553982085,0.13761374504730045,0.1402415055324442,0.1393649371701404,0.13940463386829302,0.14011886151061792,0.13413885344730062,0.14109981251952797,0.13109445644550996,0.1395381184861801,0.14010609866453394,0.1342130835906367
0.6390001773834229,car (1).jpg,0.10478987303851521,0.14164481510458174,0.13868890865908964,0.13803979164836308,0.13916991819976784,0.13762889953004115,0.14025643649774033,0.13937709651912408,0.13941187583349654,0.14012178958914157,0.13417863955243106,0.14110417110969675,0.13116294219052102,0.13954900378572985,0.1401145252721936,0.13398243593960238
0.6390001773834229,car (1).jpg,0.10470225420025041,0.14162787248228462,0.138672480126915,0.13805081105837955,0.1391705440486126,0.13761358858508926,0.14024391952084536,0.13936844639401988,0.1393966989990114,0.1401074621209457,0.134141915636291,0.14108906133044496,0.1311037324194589,0.1395370679541907,0.1400981190917634,0.13438742719738808
0.8489999771118164,car (1).jpg,0.10476193335794608,0.14163446624689893,0.13867800100779545,0.1380495817124345,0.13916097750198572,0.13761794717525805,0.14024485829411248,0.1393651830393294,0.1394101994526624,0.1401233765629979,0.134168916543593,0.14110548986261962,0.13114293737923352,0.13954189593099306,0.14011237950472588,0.1339836205820585
0.8489999771118164,car (1).jpg,0.10473752525300088,0.14163737197367812,0.13868376775786492,0.13803815997101784,0.13917340507190287,0.13762429507068336,0.14025353077096114,0.13937631420806815,0.1394003870368465,0.14010945142620224,0.13415990879057751,0.14109165413280178,0.1311392940448873,0.13954489106475007,0.1401030141237991,0.13429357222242025
0.8489999771118164,car (1).jpg,0.10470623281076345,0.14162429620317177,0.13866859092337977,0.13805494613110378,0.13916035165314097,0.13760954291934285,0.14023725870099768,0.13936091385613844,0.13939942591183493,0.14011383236811548,0.1341438602380586,0.14109525276365908,0.13109906090486775,0.13953389400647806,0.1401009130598203,0.13423230609086825
0.8489999771118164,car (1).jpg,0.10478486624775722,0.1416405906248797,0.13868519826951006,0.1380381376192734,0.1391658948857659,0.13762545736139503,0.14025236848024947,0.139371888562666,0.1394098418247511,0.14011984498737395,0.13418015947105402,0.14110267354281825,0.13116124345794242,0.1395470815357067,0.14011258067042598,0.13398885089026105
0.8489999771118164,car (1).jpg,0.10470569636889653,0.14162890066252956,0.13867366476937112,0.13805340386073636,0.13917125930443516,0.13761519791069005,0.1402446571284124,0.13936860285623107,0.1393976377722785,0.14010844559770175,0.13414714594449353,0.14109026832464555,0.1311076439747386,0.13953845376234694,0.14009923667898616,0.13439860306961574
0.8489999771118164,car (1).jpg,0.10477333274761828,0.14163375099107636,0.13867679401359487,0.13805036402349044,0.13915965874906286,0.13761676253280192,0.14024351718944517,0.13936350665849526,0.1394070925601831,0.1401194650077182,0.13417781253788622,0.1411022488596736,0.13114635719613518,0.13953849846583585,0.14010902674305759,0.13399119782342886
0.8489999771118164,car (1).jpg,0.10476262626202419,0.14163540502016606,0.13868048205143,0.13803634947971696,0.13917081226954606,0.137621478750882,0.14025091561685987,0.1393727379289553,0.13939920239439038,0.1401069703825677,0.13416377564236828,0.14108975423452308,0.13114291502748907,0.1395437287740384,0.14010136009470942,0.13429265580089758
0.8500001430511475,car (1).jpg,0.1047279140028851,0.14162474323806087,0.13866709335650126,0.13805597431134872,0.139160843391519,0.1376094758641095,0.14023683401785303,0.13936124913230527,0.1393988447664791,0.14011195482158123,0.13414292146479148,0.1410937999002695,0.1311015866519912,0.13953349167507786,0.140100063693531,0.13423930218688276
0.8500001430511475,car (1).jpg,0.10480133948342078,0.14163795311903396,0.13868110790027474,0.13803565657563885,0.13916370441480927,0.13762250693112693,0.14024926158777018,0.13937034629229858,0.13940622084214935,0.140115575804183,0.13417808075881968,0.14109862787707184,0.13116446210914398,0.1395440193467163,0.1401088255773575,0.13398824739316076
0.8500001430511475,car (1).jpg,0.10471653696495735,0.14162489970027206,0.13866894855129105,0.1380480394420671,0.13916817476370033,0.13761155457634383,0.1402409020353439,0.13936714999284147,0.13939453087979922,0.1401045116906776,0.13413838406066705,0.1410864908798326,0.1311019442799025,0.13953559273905666,0.14009579451034004,0.1344003688574277
0.8500001430511475,car (1).jpg,0.10478374866053446,0.14163285692129815,0.13867484941182726,0.13804810649730045,0.1391591893624293,0.1376158237595348,0.14024177375337765,0.1393627914026727,0.1394089477549729,0.1401207167054077,0.13416290392433453,0.14110358996434091,0.13112945927732697,0.1395394819425919,0.14011039019946936,0.13398840385537195
0.8500001430511475,car (1).jpg,0.10476980117199435,0.14163712610448911,0.1386815772869083,0.13803637183146142,0.13917235453991347,0.13762369157358306,0.14025194379710482,0.13937432490281162,0.13940000705719077,0.14010703743780106,0.1341539632265524,0.14108986599324536,0.13112950398081588,0.1395434829048494,0.1401015165569206,0.13428177050134785
0.8500001430511475,car (1).jpg,0.10473935809604622,0.14162534673516117,0.13866778626057938,0.13805557197994853,0.13916184922001948,0.13761063815482116,0.14023804101205362,0.13936189733289447,0.13940096818220235,0.140113318277993,0.1341421168019911,0.14109538687412582,0.13109519405307699,0.13953481042800073,0.14010142714994278,0.13424334785262917
0.8510000705718994,car (1).jpg,0.10481602457952792,0.14163996477603494,0.13868318661250909,0.13803699768030617,0.13916502316773213,0.1376243174224278,0.14025075915464869,0.1393710391963767,0.13940803133345023,0.14011655928093902,0.13418288638387757,0.1411001477956948,0.1311609528852645,0.1395446228438166,0.14010998786806916,0.1339829723814693
0.8510000705718994,car (1).jpg,0.10473647472101148,0.14162586082528364,0.13866939558618016,0.13804846412521174,0.13916797359800023,0.13761193455599957,0.1402407008696438,0.1393662335713188,0.1393937932722322,0.14010288001333238,0.13414303322351376,0.14108557445830994,0.13110006673336824,0.13953436339311162,0.14009458751613946,0.13440003358126087
0.8519999980926514,car (1).jpg,0.10480026659968693,0.14163214166547558,0.1386731730309931,0.13804765946241135,0.13915782590601752,0.1376145273583564,0.14024007502079905,0.13936180792591665,0.13940707020843865,0.14011783333037298,0.13416804482555925,0.14110131008640647,0.13113810940243117,0.13953733617512418,0.14010819972851274,0.13398724156466027
0.8530001640319824,car (1).jpg,0.10478935894839274,0.14163524855795487,0.1386787833188514,0.13803449428492717,0.13916987349627893,0.13762038351540368,0.140249350994748,0.13937070392020987,0.13939656488854466,0.14010263414414337,0.13416987766860458,0.14108633441762142,0.13115033580664823,0.1395397278117809,0.14009818614699676,0.13428123405948092
0.8530001640319824,car (1).jpg,0.10475533959333176,0.1416210328484813,0.13866289122854367,0.13805195099734677,0.13915706594670604,0.13760502786696288,0.14023222955849524,0.13935646585899183,0.1393965425368002,0.14010775269362363,0.13415780772659872,0.14109098358046812,0.13111238254456312,0.13952973658200937,0.140097314428963,0.13425110390795517
0.8530001640319824,car (1).jpg,0.10482690987907765,0.14163692493878902,0.1386798338508408,0.13803574598261667,0.13916162570257493,0.13762058468110377,0.14024673584064673,0.1393666806062079,0.13940557264156014,0.14011363120241538,0.13419243057875999,0.14109811378694936,0.13117206170225879,0.13954196298622643,0.1401077750453681,0.13398319589891386
0.8530001640319824,car (1).jpg,0.10474467781122658,0.14162324567118237,0.13866673572858998,0.13804774886938917,0.1391650902229655,0.1376097664367874,0.14023821982600926,0.1393645348387402,0.1393918933739535,0.14010118128075377,0.13414987285731708,0.14108452392632054,0.13110972268697293,0.1395334693233334,0.14009293348704976,0.1344081696162426
0.8530001640319824,car (1).jpg,0.10481146482365904,0.14162885595904065,0.13867013319374719,0.13804712302054442,0.13915407081294903,0.13761195690774403,0.14023678931436412,0.13935975156542676,0.13940311394967006,0.14011474878963814,0.13418036063675412,0.14109851611834956,0.13113705887044178,0.1395348774832341,0.14010413171102187,0.13400420653870185
0.8540000915527344,car (1).jpg,0.104802233553199,0.1416344885986434,0.13867844804268456,0.13803552246517212,0.1391680853567225,0.13762033881191477,0.14024783107612504,0.13937177680394372,0.1393969448682004,0.14010384113834395,0.13417846073847542,0.1410877425775221,0.13114038928036562,0.1395416277100596,0.14009874494060814,0.13428706786478375
0.8540000915527344,car (1).jpg,0.10476407912541379,0.1416204740548699,0.13866235478667674,0.13805349326771418,0.13915581424901655,0.13760469259079605,0.1402310002125502,0.13935651056248075,0.13939457558328813,0.1401066127546564,0.13416648020344737,0.1410898883449898,0.13110335243980317,0.13952953541630927,0.14009550393766212,0.13426281622204975
0.8540000915527344,car (1).jpg,0.10483877865538342,0.14163446624689893,0.13867715164150615,0.13803520954074974,0.13915880938277356,0.1376185730241028,0.14024396422433427,0.1393659877021298,0.1394022869351252,0.14011079253086955,0.13420776387545633,0.14109547628110364,0.13117224051621443,0.13953943723910298,0.1401046234493999,0.1339888285385166
0.8540000915527344,car (1).jpg,0.10475536194507622,0.14162165869732604,0.138664724071589,0.13804770416590026,0.13916345854562026,0.13760759831757524,0.14023593994807482,0.13936207614685012,0.13939184867046459,0.14010039896969784,0.13416627903774728,0.14108400983619807,0.13111046029453996,0.13953286582623312,0.1400926652661163,0.1344188761018367
0.996999979019165,car (1).jpg,0.1048205843353968,0.14162925829044085,0.13866921677222452,0.1380500287473236,0.1391543837373714,0.13761079461703235,0.14023620816900828,0.1393584328125039,0.13940210812116957,0.14011296065008172,0.13419350346249384,0.14109737617938234,0.1311430044344669,0.1395330669919332,0.1401036623243883,0.1340132366434618
0.9980001449584961,car (1).jpg,0.10479684678278527,0.14163176168581984,0.1386759222955611,0.1380352318924942,0.13916580547878807,0.1376177236578135,0.14024508181155704,0.13936777584168622,0.1393967437025003,0.14010265649588782,0.13419973959919687,0.14108745200484418,0.13115697427475145,0.13954015249492555,0.14009878964409705,0.13428675494036138
0.9980001449584961,car (1).jpg,0.10477248338132898,0.14162174810430386,0.1386632712081994,0.13805637664274892,0.13915742357461733,0.13760585488150773,0.14023283305559553,0.1393573375770256,0.1393971907373894,0.14010853500467957,0.13418398161935588,0.14109257055432445,0.1311198480272112,0.13953199410819936,0.14009818614699676,0.13427537790243363
0.9980001449584961,car (1).jpg,0.10485426841429095,0.14163795311903396,0.13867999031305198,0.13803952342742962,0.13916115631594136,0.13762163521309317,0.14024713817204693,0.13936902753937572,0.1394049467927154,0.1401134747402042,0.13421735277382765,0.14109882904277193,0.1311788566325732,0.13954229826239326,0.14010748447269017,0.13398719686117136
0.9980001449584961,car (1).jpg,0.10476884004698277,0.1416224857118709,0.13866501464426692,0.13804844177346728,0.13916265388281987,0.1376082688699089,0.14023620816900828,0.13936252318173922,0.13939046286230836,0.1400996613621308,0.1341742139070289,0.14108400983619807,0.13111571295448696,0.13953313404716658,0.14009183825157145,0.13441831730822532
0.9980001449584961,car (1).jpg,0.10483227429774693,0.14162878890380728,0.13866921677222452,0.13805029696825707,0.13915281911525954,0.13761104048622136,0.14023567172714135,0.1393566893764364,0.13940416448165946,0.14011559815592745,0.13420736154405613,0.14110061718232836,0.13115223570492693,0.13953608447743468,0.1401059198505783,0.1340215291406547
0.999000072479248,car (1).jpg,0.10482646284418855,0.14163506974399923,0.13867873861536248,0.1380377352878732,0.13916705717647757,0.13762080819854833,0.14024796518659177,0.1393716873969659,0.13939681075773366,0.14010332704822148,0.13420635571555564,0.14108865899904477,0.13115701897824036,0.13954185122750415,0.14009878964409705,0.1342902418124964
0.999000072479248,car (1).jpg,0.10479204115772738,0.14162020583393645,0.13866125955119843,0.13805445439272576,0.1391541378681824,0.13760344089310655,0.14022986027358297,0.13935606352759164,0.13939437441758804,0.14010583044360048,0.13418650736647933,0.14109029067639,0.131111689640485,0.1395294683610759,0.14009512395800638,0.13428286573682616
1.0,car (1).jpg,0.1048831468681272,0.14163551677888833,0.13867674931010596,0.13803744471519527,0.13915657420832803,0.13761750014036894,0.14024262311966695,0.1393644901352513,0.13940172814151383,0.14010998786806916,0.13421829154709478,0.1410956997985482,0.13117038532142464,0.13953836435536912,0.14010384113834395,0.1339879791722273
1.0,car (1).jpg,0.10480529574218937,0.14162080933103674,0.1386617736413209,0.13804596072983275,0.13915865292056237,0.13760397733497348,0.14023207309628405,0.13935744933574787,0.13938766889425144,0.14009702385628509,0.13417741020648602,0.14108157349605244,0.13110815806486106,0.13953009420992066,0.14008904428351454,0.13442564868040666
1.0,car (1).jpg,0.10487402735638944,0.14162840892415154,0.13866709335650126,0.13804886645661194,0.13915000279545817,0.13760820181467553,0.1402327436486177,0.13935595176886936,0.13940016351940196,0.14011208893204796,0.13420651217776683,0.14109715266193779,0.13114012105943215,0.1395331787506555,0.14010200829529862,0.1340328391233491
1.001000165939331,car (1).jpg,0.10486841706853116,0.14163200755500885,0.13867348595541548,0.1380328849593264,0.13916086574326345,0.13761510850371222,0.1402419972708222,0.13936614416434098,0.13939426265886576,0.1401011142255204,0.13420923909059038,0.1410862897141325,0.1311533532921497,0.1395393701838696,0.14009659917314043,0.1342998530626122
1.001000165939331,car (1).jpg,0.10482205955053085,0.1416208316827812,0.13866018666746457,0.13805541551773734,0.1391534896675932,0.13760294915472854,0.14022948029392723,0.13935416362931294,0.13939276509198725,0.1401040646557885,0.13418690969787953,0.14108827901938903,0.1311112426055959,0.13952770257326394,0.1400935593358945,0.13430588803361512
1.001000165939331,car (1).jpg,0.10489604382467792,0.14163310279048716,0.13867270364435955,0.13803614831401687,0.13915402610946012,0.13761446030312302,0.1402398962068434,0.13936100326311626,0.1394023986938475,0.14011005492330253,0.13422269484075247,0.141095543336337,0.13117452039414887,0.1395389231489805,0.14010419876625524,0.13400411713172403
1.001000165939331,car (1).jpg,0.10481703040802841,0.14162282098803772,0.13866315944947713,0.1380489782153342,0.13916126807466364,0.1376065701373303,0.1402350011748077,0.13936122678056082,0.13939057462103063,0.1400989237545638,0.13418816139556902,0.1410835404495645,0.1311183951638216,0.13953279877099975,0.14009168178936027,0.13444589936088316
1.001000165939331,car (1).jpg,0.10487581549594586,0.14162769366832897,0.13866633339718978,0.13805065459616836,0.1391499804437137,0.13760833592514227,0.14023305657304008,0.139355884713636,0.13940061055429107,0.1401118207111145,0.13421809038139468,0.14109710795844888,0.13114662541706865,0.13953239643959955,0.1401025223854211,0.13405362624569253
1.003000020980835,car (1).jpg,0.10487342385928915,0.14163205225849776,0.13867339654843766,0.13803433782271599,0.13916167040606384,0.13761515320720114,0.14024275723013369,0.13936607710910762,0.13939356975478764,0.1400994154929418,0.13422146549480743,0.14108526153388756,0.13116162343759816,0.13953740323035754,0.14009574980685113,0.1343091960917945
1.004000186920166,car (1).jpg,0.10482930151573437,0.14161823888042438,0.1386581303069747,0.13805407441307002,0.13915152271408113,0.13760015518667162,0.14022708865727052,0.13935179434440068,0.13939240746407597,0.14010339410345485,0.13420139362828656,0.14108841312985576,0.13111931158534426,0.13952721083488592,0.14009324641147214,0.13432888797865963
1.005000114440918,car (1).jpg,0.10490748791783903,0.1416326781073425,0.13867310597575974,0.1380366847558838,0.13915335555712646,0.13761401326823391,0.14023967268939885,0.13936104796660517,0.1393990459321792,0.1401067245133787,0.13423655292231476,0.14109321875491365,0.13118299170529743,0.13953501159370083,0.1401011142255204,0.13402611124826805
1.4090001583099365,car (1).jpg,0.10482087490807472,0.14161689777575706,0.13865835382441924,0.1380446866803988,0.13915590365599437,0.1376015186430834,0.14022986027358297,0.1393560858793361,0.13938681952796214,0.14009467692311728,0.1341958727474061,0.1410799865221961,0.13112856520754876,0.13952978128549828,0.1400878149375695,0.13447354846877438
1.4090001583099365,car (1).jpg,0.10488176105997098,0.14162324567118237,0.13866248889714347,0.13804875469788966,0.13914631475762304,0.13760482670126278,0.14023010614277198,0.13935407422233512,0.1393984871385678,0.14010954083318006,0.1342188726924506,0.14109516335668126,0.13115076048979288,0.13953159177679916,0.14009968371387527,0.13408286232744007
1.4090001583099365,car (1).jpg,0.10488781838271836,0.14163030882243025,0.1386718766298147,0.13803509778202747,0.1391590329002181,0.137614214433934,0.14024105849755508,0.1393653842050295,0.13939256392628716,0.14009854377490805,0.13421876093372834,0.14108456862980945,0.13115773423406293,0.13953776085826883,0.1400943639986949,0.13432544581001352
1.4100000858306885,car (1).jpg,0.10483806339956085,0.14161488611875608,0.1386546210830952,0.138053336805503,0.13914747704833472,0.13759724945989243,0.14022331121245757,0.13934819571354337,0.13938816063262946,0.1400992143272417,0.13419544806426145,0.14108443451934272,0.13111517651262003,0.1395241262941511,0.14008895487653672,0.1343506138742702
1.4100000858306885,car (1).jpg,0.10491329937139741,0.1416302864706858,0.13867011084200273,0.13803664005239488,0.13915040512685836,0.1376122698321664,0.1402371022387865,0.13935841046075945,0.13939978353974622,0.14010790915583482,0.13423007091642272,0.14109411282469186,0.13118422105124247,0.13953700089895735,0.14010209770227644,0.1340345378559277
1.4100000858306885,car (1).jpg,0.10482492057382113,0.14161855180484675,0.13865909143198626,0.1380470336135666,0.1391569318362393,0.13760323972740646,0.14023162606139494,0.1393579857776148,0.1393868865831955,0.14009525806847312,0.13418462981994508,0.14108027709487403,0.13112277610573483,0.13953009420992066,0.14008815021373633,0.13447737061707624
1.4110000133514404,car (1).jpg,0.10488549380129501,0.1416239832787494,0.13866168423434308,0.13805027461651262,0.1391468288477455,0.1376049161082406,0.1402299943840497,0.13935302369034572,0.13939616255714446,0.1401069703825677,0.13421026727083532,0.14109265996130227,0.1311457984025238,0.1395281272564086,0.14009764970512983,0.13408565629549699
1.4130001068115234,car (1).jpg,0.10489081351647538,0.1416263302119172,0.138667719205346,0.1380310744680255,0.1391556354350609,0.13761003465772087,0.14023813041903144,0.13935990802763795,0.13939102165591974,0.1400967109318627,0.1342306297100341,0.1410830934146754,0.13117013945223563,0.13953559273905666,0.14009295583879422,0.13432866446121508
1.4140000343322754,car (1).jpg,0.10483607409430433,0.1416136344210666,0.13865426345518392,0.13805320269503626,0.13914767821403481,0.1375972718116369,0.1402245405584026,0.13934964857693297,0.13938795946692936,0.14009885669933042,0.1342070709713782,0.14108432276062044,0.13112626297786986,0.1395245286255513,0.14008888782130335,0.13436228148487586
1.4150002002716064,car (1).jpg,0.10491873084530005,0.14162914653171857,0.13866995437979154,0.13803681886635052,0.13915036042336945,0.13761195690774403,0.14023763868065342,0.13935809753633707,0.13939951531881276,0.14010759623141245,0.1342415373613283,0.14109442574911424,0.1311900548565453,0.1395364197536015,0.14010203064704307,0.13403614718152848
1.4150002002716064,car (1).jpg,0.10483739284722719,0.14161640603737904,0.13865766092034112,0.1380448878460989,0.13915532251063853,0.1376010716081943,0.1402297485148607,0.13935449890547977,0.13938331030408266,0.140091570030638,0.13420248886376487,0.14107741607158375,0.13113366140528457,0.139526674393019,0.14008488685904585,0.1344832938293569
1.4150002002716064,car (1).jpg,0.10489582030723336,0.1416187306188024,0.13865750445812994,0.13804656422693304,0.13914215733315435,0.13760062457330519,0.14022516640724736,0.13934906743157713,0.1393935921065321,0.1401046234493999,0.13422609230590968,0.14109080476651248,0.1311628974870321,0.13952636146859662,0.14009528042021757,0.13410168249627144
1.4150002002716064,car (1).jpg,0.10490078239450244,0.1416253243834167,0.13866640045242315,0.13803100741279214,0.13915436138562695,0.13760967702980959,0.1402367446108752,0.1393600868415936,0.1393889876471743,0.140094565164395,0.13422063848026258,0.14108117116465224,0.13116763605685663,0.13953393870996697,0.14009078771958206,0.13432368002220155
1.4150002002716064,car (1).jpg,0.10485527424279144,0.1416103263628872,0.13864943547838157,0.1380497828781346,0.13914352078956613,0.13759358377380176,0.14021995845078927,0.1393444853239638,0.13938275151047128,0.14009329111496105,0.13419015070082554,0.1410788465832289,0.13111291898643004,0.13951878422722627,0.14008269638808923,0.13436733297912276
1.4150002002716064,car (1).jpg,0.1049387133048431,0.14162329037467128,0.1386626677110991,0.13803105211628106,0.13914300669944366,0.1376053631431297,0.14022965910788288,0.1393506767571779,0.1393925415745427,0.1401004660249312,0.13422276189598584,0.14108725083914408,0.13117414041449313,0.13952913308490908,0.14009389461206134,0.1340312297977483
1.4160001277923584,car (1).jpg,0.10486012457133824,0.14161079574952076,0.13865133537666027,0.1380390763925405,0.13914805819369055,0.1375956177825472,0.1402236911921133,0.1393498273908886,0.13937828116158021,0.14008642912941327,0.1341885190234803,0.1410723869290813,0.1311257488877474,0.13952160054702764,0.14007903070199856,0.13448606544566935
1.4160001277923584,car (1).jpg,0.10490929840913991,0.1416143720286336,0.13865294470226106,0.13804240680246435,0.1391366364522739,0.1375958189482473,0.14022103133452313,0.13934298775708528,0.13939117811813093,0.14010223181274317,0.13421301653540332,0.14108870370253368,0.13115572257706196,0.13952345574181743,0.1400924193969273,0.13410516936840647
1.4160001277923584,car (1).jpg,0.10491023718240704,0.14162291039501554,0.1386643217401888,0.13802866047962434,0.13915096392046974,0.13760715128268614,0.14023450943642968,0.13935735992877005,0.13938541136806146,0.1400914135684268,0.1342198338174622,0.14107822073438414,0.13117159231562522,0.13953000480294284,0.14008743495791376,0.1343257587344359
1.4160001277923584,car (1).jpg,0.10485607890559183,0.1416073312291302,0.1386468650277692,0.13804779357287808,0.13914054800755357,0.1375906109917892,0.1402175444623881,0.13934225014951826,0.1393817903854597,0.14009300054228313,0.1341952692503058,0.14107855601055097,0.13112241847782355,0.1395182254336149,0.14008285285030042,0.13438447676711998
1.4160001277923584,car (1).jpg,0.10493880271182092,0.14162244100838198,0.1386620195105099,0.138032326165715,0.13914200087094317,0.1376049161082406,0.14022963675613842,0.13935145906823385,0.13939142398731993,0.14009995193480873,0.13422984739897817,0.14108678145251052,0.13118464573438712,0.13952783668373067,0.14009380520508352,0.1340442832165102
1.4170000553131104,car (1).jpg,0.10485820232131508,0.14160985697625364,0.13864994956850404,0.13803936696521843,0.1391472311791457,0.13759465665753562,0.1402227971223351,0.1393485309897102,0.13937812469936903,0.14008656323988,0.1341787736628978,0.14107229752210348,0.13111881984696624,0.1395213770295831,0.14007950008863213,0.13448700421893647
1.4170000553131104,car (1).jpg,0.10491388051675325,0.14161464024956708,0.13865214003946066,0.1380445302181876,0.13913670350750726,0.13759588600348066,0.14022152307290114,0.13934365830941894,0.13938876412972975,0.14009997428655319,0.13421800097441686,0.14108642382459924,0.13115046991711496,0.1395212205673719,0.14009040773992631,0.1341242130546824
1.4170000553131104,car (1).jpg,0.1048953509205998,0.14161624957516786,0.13865913613547518,0.1380253300697005,0.13914622535064522,0.13760285974775072,0.14023196133756177,0.1393525319519677,0.13938266210349345,0.14008803845501405,0.13421726336684983,0.14107457740003793,0.13115216864969356,0.139526674393019,0.14008412689973437,0.13432924560657092
1.4170000553131104,car (1).jpg,0.10483341423671415,0.14160453726107328,0.13864538981263516,0.13804846412521174,0.1391399892139422,0.13759018630864456,0.14022040548567838,0.13934166900416242,0.1393825950482601,0.14009239704518284,0.1341914247502595,0.14107757253379494,0.1310962892885553,0.13951789015744806,0.14008249522238914,0.13438825421193293
1.4170000553131104,car (1).jpg,0.10490567742653815,0.1416189317845025,0.1386603207779313,0.13803295201455976,0.13914222438838772,0.13760424555590695,0.14023390593932938,0.13935130260602266,0.1393929886094318,0.14009984017608645,0.13421920796861744,0.14108555210656548,0.13114861472232517,0.1395272778901193,0.14009402872252807,0.13403216857101544
1.4170000553131104,car (1).jpg,0.10481586811731673,0.1416052748686403,0.13864773674580297,0.13803880817160705,0.13914736528961244,0.13759367318077959,0.14022673102935923,0.13934750280946526,0.1393796893214809,0.14008665264685782,0.13417269398840595,0.14107037527208033,0.13108562750645011,0.13952019238712696,0.1400796565508433,0.13447200619840696
1.4170000553131104,car (1).jpg,0.10486104099286091,0.14161039341812057,0.1386506201208377,0.1380451337152879,0.13913826812961913,0.13759575189301393,0.14022536757294746,0.13934374771639677,0.1393918933739535,0.14010254473716555,0.1341909777153704,0.14108570856877667,0.1311029948118919,0.13952164525051655,0.1400920170655271,0.13408883024320964
1.4170000553131104,car (1).jpg,0.1048614433242611,0.14161745656936844,0.1386599184465311,0.13802754289240157,0.1391495334088246,0.13760554195708535,0.14023728105274214,0.13935485653339105,0.13938561253376155,0.14009170414110472,0.13419198354387088,0.14107459975178238,0.13111607058239824,0.13952801549768631,0.14008656323988,0.13426885119305268
1.4179999828338623,car (1).jpg,0.10480610040498976,0.14160259265930566,0.13864270760330052,0.1380457819158771,0.13913965393777536,0.13758938164584417,0.14022036078218947,0.13934070787915084,0.13938225977209326,0.14009373814985016,0.1341586123893991,0.14107506913841594,0.13105815721251454,0.1395163702388251,0.14008184702179993,0.13432721159782549
1.4179999828338623,car (1).jpg,0.10488922654261905,0.14161741186587953,0.1386570797749853,0.13802901810753562,0.13913994451045328,0.13760230095413933,0.14023133548871702,0.1393474357542319,0.13939077578673073,0.14009990723131982,0.13418999423861436,0.14108219934489719,0.13111240489630757,0.13952379101798426,0.14009174884459363,0.13396138059632548
1.4179999828338623,car (1).jpg,0.10480449107938898,0.14160411257792863,0.13864454044634586,0.1380338237325935,0.13914416899015533,0.1375907674540004,0.14022270771535728,0.13934301010882974,0.1393775882575021,0.140086809109069,0.13414853175264976,0.1410677377662346,0.13105274809035636,0.13951748782604786,0.14007777900430907,0.13440609090400826
1.4179999828338623,car (1).jpg,0.10484637824849823,0.14160871703728642,0.13864699913823594,0.13803956813091853,0.1391341330568949,0.13759204150343435,0.14022018196823383,0.139337623338416,0.139387646542507,0.1401004660249312,0.1341688718401041,0.14108150644081907,0.13107387048886662,0.13951686197720312,0.14008803845501405,0.13403616953327294
1.4179999828338623,car (1).jpg,0.10484566299267566,0.14161573548504539,0.1386567668505629,0.13802121734872072,0.13914564420528938,0.13760194332622805,0.14023296716606226,0.1393501850187999,0.13938436083607206,0.14009224058297165,0.13417499621808485,0.14107357157153744,0.13109890444265657,0.13952654028255226,0.14008537859742387,0.1342291321431556
1.4179999828338623,car (1).jpg,0.10478587207625771,0.1416023244383722,0.13864161236782221,0.13804204917455307,0.13913822342613022,0.13758759350628774,0.14021792444204384,0.13933961264367253,0.13937951050752526,0.14009188295506037,0.13414694477879344,0.14107236457733685,0.1310474730786649,0.1395141127126351,0.14007894129502074,0.13431619218780902
1.4190001487731934,car (1).jpg,0.10485952107423795,0.1416152213949229,0.1386546210830952,0.13802461481387793,0.13913755287379656,0.13759872467502648,0.14022766980262635,0.13934397123384132,0.139390395807075,0.1400998625278309,0.13417951127046482,0.14108157349605244,0.13110851569277235,0.1395228745964616,0.14009085477481542,0.13395129995957614
1.4190001487731934,car (1).jpg,0.10477011409641672,0.14160404552269526,0.1386447639637904,0.13803181207559254,0.13914450426632216,0.13759043217783357,0.14022188070081243,0.13934332303325211,0.13937481664118964,0.14008408219624546,0.1341381605432225,0.14106476498422205,0.13105189872406706,0.13951567733474698,0.14007424742868513,0.13440430276445184
1.4190001487731934,car (1).jpg,0.10481506345451634,0.1416058783657406,0.13864398165273448,0.1380362824244836,0.1391316296615159,0.13758888990746615,0.14021656098563207,0.1393354775709483,0.13938610427213957,0.14009825320223013,0.13415595253180893,0.14107907010067344,0.13107391519235553,0.13951455974752422,0.14008544565265724,0.13404202569032023
1.4190001487731934,car (1).jpg,0.10482293126856461,0.14161439438037807,0.13865513517321768,0.1380198315405645,0.1391440795831775,0.1375995740413158,0.14023001673579416,0.13934759221644308,0.13938190214418197,0.14008917839398127,0.13416198750281186,0.14107019645812469,0.13109684808216668,0.1395224722650614,0.14008180231831102,0.13422336539308613
1.4190001487731934,car (1).jpg,0.10475484785495374,0.1415987034557704,0.13863810314394273,0.13803954577917407,0.13913455774003955,0.13758334667484123,0.1402130964652415,0.13933438233547,0.13937689535342399,0.14008904428351454,0.1341333102146757,0.14106928003660202,0.13104543906991947,0.1395105140817778,0.14007563323684136,0.13431516400756408
1.4190001487731934,car (1).jpg,0.1048352917832484,0.14161385793851114,0.13865341408889462,0.1380239219097998,0.1391351835888843,0.13759684712849224,0.14022471937235825,0.13934189252160697,0.13938726656285125,0.14009702385628509,0.13417343159597298,0.14107871247276216,0.13110802395439433,0.1395191195033931,0.14008723379221366,0.13394394623565034
1.4190001487731934,car (1).jpg,0.10475768652649957,0.14160270441802794,0.13864384754226775,0.13802944279068027,0.13914244790583227,0.1375888675557217,0.14021953376764462,0.1393413784314845,0.13937602363539023,0.14008517743172377,0.13413999338626784,0.14106590492318927,0.13106104058754928,0.13951554322428025,0.14007509679497443,0.13440103940976136
1.4200000762939453,car (1).jpg,0.10479999837875346,0.1416067724355188,0.13864594860624654,0.13803666240413934,0.13913299311792768,0.13758978397724436,0.14021682920656553,0.13933579049537068,0.13938476316747225,0.14009715796675182,0.1341600652527887,0.1410784442518287,0.1310800395703363,0.1395130174771568,0.1400837692718231,0.1340454902107108
1.4200000762939453,car (1).jpg,0.1048110848440033,0.14161099691522086,0.13865278824004987,0.1380150706189955,0.13914059271104248,0.1375962212796475,0.1402257475526032,0.13934385947511904,0.13937745414703537,0.1400848645073014,0.13417280574712823,0.14106670958598966,0.13111211432362965,0.13951862776501509,0.14007784605954243,0.134219677355251
1.4200000762939453,car (1).jpg,0.10474841055255062,0.14159646828132488,0.13863714201893115,0.13803617066576132,0.1391330825249055,0.13758160323877372,0.14021135302917398,0.13933250478893575,0.13937624715283478,0.14008844078641425,0.13414774944159383,0.14106941414706875,0.1310650862532957,0.13951082700620018,0.14007554382986354,0.13432448468500194
1.4200000762939453,car (1).jpg,0.10482945797794556,0.1416134779588554,0.1386545763796063,0.13802385485456645,0.13913589884470687,0.13759749532908144,0.14022545697992528,0.13934269718440737,0.1393891441093855,0.14009890140281933,0.1341880272851023,0.1410811488129078,0.13113115800990557,0.1395225169685503,0.14008980424282602,0.13395670908173432
1.4210000038146973,car (1).jpg,0.10474778470370587,0.1416027714732613,0.13864523335042397,0.13803033686045849,0.13914374430701068,0.13758985103247773,0.14022080781707857,0.13934321127452984,0.13937307320512213,0.14008207053924449,0.13415313621200756,0.14106324506559909,0.13108415229131606,0.13951438093356858,0.14007304043448454,0.1344167750378579
1.4210000038146973,car (1).jpg,0.10478788373325869,0.1416008045197492,0.13864085240851073,0.13803315318025985,0.13912834395508097,0.13758457602078628,0.14021285059605249,0.1393327730098692,0.13938035987381456,0.14009268761786076,0.13416918476452647,0.14107397390293763,0.13109941853277904,0.13951049173003335,0.1400802153444547,0.1340602423620513
1.4210000038146973,car (1).jpg,0.10479778555605239,0.14160840411286404,0.13865100010049344,0.1380144224184063,0.13913891633020833,0.13759472371276898,0.1402243393927025,0.13934370301290785,0.13937810234762457,0.1400853115421905,0.1341741245000511,0.14106691075168976,0.13112025035861138,0.13952008062840468,0.14007847190838718,0.13421916326512853
1.4210000038146973,car (1).jpg,0.10473627355531138,0.1415940095894348,0.13863519741716354,0.13803545540993875,0.13913174142023818,0.1375800609684063,0.14020905079949508,0.13933100722205724,0.13937231324581065,0.14008428336194556,0.13414797295903838,0.14106480968771096,0.1310690872155532,0.13950698250615387,0.14007134170190594,0.13433201722288338
1.4220001697540283,car (1).jpg,0.10482541231219915,0.14160891820298652,0.13864988251327068,0.13802014446498687,0.13913192023419382,0.13759309203542375,0.1402202490234672,0.13933807037330512,0.13938384674594959,0.14009335817019442,0.13419144710200395,0.14107558322853841,0.13113567306228555,0.13951690668069203,0.14008388103054537,0.13396030771259163
1.4220001697540283,car (1).jpg,0.1047487681804619,0.14159792114471448,0.13864029361489935,0.13802461481387793,0.13913880457148606,0.1375846654277641,0.140214348162931,0.13933731041399364,0.13936904989112017,0.14007742137639778,0.13415644427018694,0.14105890882717476,0.13108316881456003,0.13950957530851069,0.14006798894023764,0.13441813849426967
1.6349999904632568,car (1).jpg,0.10479615387870715,0.14159955282205972,0.13863917602767659,0.1380310297645366,0.13912646640854673,0.1375823631980852,0.14020936372391746,0.13932823560574478,0.13938004694939218,0.1400922629347161,0.13416788836334806,0.14107372803374862,0.13109331650654274,0.13950959766025514,0.14007914246072084,0.13406663496096552
1.6349999904632568,car (1).jpg,0.1048136329428712,0.14160936523787562,0.13865124596968245,0.13801366245909483,0.13913907279241952,0.13759447784357998,0.14022357943339103,0.1393432336262743,0.1393775435540132,0.14008455158287902,0.13418968131419198,0.1410666425307563,0.13113033099536073,0.139519164206882,0.14007760019035342,0.1342265840442877
1.6349999904632568,car (1).jpg,0.10473815110184563,0.14159398723769034,0.13863568915554156,0.1380346283953939,0.13913216610338283,0.13757918925037255,0.14020860376460598,0.13933071664937932,0.1393714862312658,0.14008327753344507,0.1341589700173104,0.14106451911503304,0.13107445163422246,0.13950662487824259,0.14007046998387218,0.13435077033648138
1.6349999904632568,car (1).jpg,0.10482847450118953,0.14160719711866346,0.1386489213882591,0.13801900452601965,0.13913046737080423,0.1375907674540004,0.1402186396978664,0.13933661750991552,0.1393822374203488,0.14009230763820502,0.13419701268637332,0.1410748456209714,0.13113875760302038,0.13951567733474698,0.1400826069811114,0.1339749704569543
1.6349999904632568,car (1).jpg,0.10475057867176278,0.14159707177842518,0.13864036067013272,0.13802461481387793,0.13913840224008586,0.1375843077998528,0.14021423640420871,0.1393377350971383,0.1393680887661086,0.14007757783860897,0.13415789713357654,0.14105917704810822,0.13107990545986956,0.13951069289573345,0.14006769836755972,0.13442754857868536
1.6349999904632568,car (1).jpg,0.10479514805020666,0.1415976082202921,0.13863850547534293,0.138032080296526,0.13912543822830178,0.13758162559051818,0.14020797791576123,0.13932924143424527,0.13937676124295725,0.14008973718759266,0.13417249282270585,0.14107122463836963,0.13109047783499692,0.13950765305848753,0.1400760132164971,0.13408183414719513
1.6349999904632568,car (1).jpg,0.10480840263466866,0.14160581131050723,0.13864865316732564,0.13801339423816136,0.1391358764929624,0.1375920191516899,0.14022038313393392,0.1393403278994951,0.1393737437574558,0.1400812658764441,0.13417745490997493,0.1410631333068768,0.13111821634986595,0.13951605731440272,0.14007362157984038,0.1342175315877833
1.6349999904632568,car (1).jpg,0.10474063214548017,0.14159027684811076,0.13863159878630624,0.13803360021514896,0.13912858982426998,0.13757621646836,0.140204334581415,0.13932676039061073,0.13936811111785305,0.14008023769619915,0.13414441903167,0.14106112164987583,0.1310627840236168,0.13950394266890795,0.1400667148908037,0.13435103855741484
1.636000156402588,car (1).jpg,0.10482246188193105,0.1416050289994513,0.13864621682718,0.13801945156090875,0.13912890274869236,0.13758964986677763,0.1402160915989985,0.13933389059709197,0.139379890487181,0.14008998305678166,0.1341811205960656,0.1410720963564034,0.13112411721040215,0.13951364332600155,0.14007963419909886,0.133965627427772
1.636000156402588,car (1).jpg,0.10474539306704915,0.1415955071563133,0.1386381701991761,0.1380245254069001,0.13913764228077438,0.13758352548879688,0.14021298470651922,0.13933541051571494,0.13936625592306326,0.14007505209148552,0.13414605070901522,0.14105627132132903,0.13107429517201127,0.13950827890733228,0.14006517262043627,0.1344186749361366
1.636000156402588,car (1).jpg,0.10478050765758844,0.14159436721734608,0.13863468332704107,0.13803105211628106,0.13912376184746764,0.13757898808467245,0.1402055415756156,0.13932600043129925,0.13937618009760142,0.14008823962071415,0.1341692741715043,0.14106995058893568,0.13109566343971055,0.13950653547126476,0.14007502973974106,0.13407991189717197
1.636000156402588,car (1).jpg,0.1048003336549203,0.14160511840642911,0.13864773674580297,0.13801424360445066,0.13913610001040697,0.13759150506156742,0.1402202490234672,0.13933871857389432,0.1393737437574558,0.14008037180666588,0.13418042769198749,0.1410626862719877,0.13111931158534426,0.1395151185411356,0.140073308655418,0.13420514872135506
1.636000156402588,car (1).jpg,0.10473774877044544,0.14159036625508858,0.1386314199723506,0.13803447193318272,0.1391289251004368,0.13757590354393762,0.14020502748549313,0.13932693920456637,0.13936967573996492,0.14008052826887707,0.13414593895029295,0.1410617922022095,0.13106394631432847,0.1395047696834528,0.1400678548297709,0.13434332720557776
1.636000156402588,car (1).jpg,0.1048203831696967,0.1416067724355188,0.13864735676614723,0.13802231258419903,0.13913071323999324,0.13759119213714505,0.1402183491251885,0.1393361257715375,0.13938187979243752,0.14009065360911532,0.13418158998269916,0.14107316924013724,0.13112733586160372,0.13951476091322432,0.14008142233865528,0.1339543621485665
1.6380000114440918,car (1).jpg,0.10474575069496044,0.14159588713596905,0.138637723164287,0.13802515125574485,0.13913750817030765,0.1375833690265857,0.14021347644489723,0.1393354328674594,0.13936735115854157,0.14007518620195225,0.1341462071712264,0.14105685246668487,0.13108044190173648,0.13950950825327732,0.1400663572628924,0.1344113212122108
1.6380000114440918,car (1).jpg,0.1047786748145431,0.1415965129848138,0.1386358232660083,0.1380335331599156,0.1391252370626017,0.1375808656312067,0.14020762028784994,0.13932886145458953,0.13937772236796883,0.14009002776027057,0.13416263570340106,0.14107160461802537,0.13108826501229584,0.13950834596256564,0.14007684023104194,0.1340766038389926
1.6380000114440918,car (1).jpg,0.10480087009678722,0.14160730887738573,0.13864905549872583,0.13801578587481808,0.139137329356352,0.1375929132214681,0.14022152307290114,0.13934037260298401,0.13937492839991192,0.1400821152427334,0.13417443742447346,0.14106422854235512,0.13111008031488422,0.13951619142486946,0.14007485092578542,0.13419218470957098
1.6380000114440918,car (1).jpg,0.1047374134942786,0.1415918638219671,0.13863217993166208,0.138035075430283,0.13913019914987076,0.13757695407592702,0.14020560863084897,0.1393278779778335,0.13936824522831978,0.14007967890258777,0.1341462071712264,0.14106045109754217,0.13105500561654634,0.13950365209623003,0.14006633491114795,0.13434433303407825
1.6380000114440918,car (1).jpg,0.1048283403907228,0.14160295028721695,0.13864264054806716,0.13801790929054134,0.13912595231842426,0.13758629710510933,0.14021276118907466,0.13933221421625783,0.13937752120226873,0.14008683146081347,0.13418378045365578,0.14106901181566855,0.1311229996231794,0.13950997763991088,0.14007679552755303,0.13395190345667643
1.6380000114440918,car (1).jpg,0.10475647953229898,0.1415929590574454,0.13863430334738533,0.1380211726452318,0.13913386483596143,0.1375795692300283,0.14020952018612864,0.13933246008544684,0.1393630372718617,0.14007107348097247,0.13414964933987253,0.14105265033872727,0.1310748316138782,0.13950427794507478,0.1400615069343456,0.13440168761035057
1.6380000114440918,car (1).jpg,0.10479036477689323,0.1415925567260452,0.13863153173107287,0.13802906281102453,0.1391209231759218,0.13757534475032623,0.14020236762790295,0.13932186535857502,0.13937322966733331,0.14008557976312397,0.1341670166453143,0.1410673354348344,0.13108504636109428,0.13950324976482983,0.14007190049551732,0.1340715970482346
1.6380000114440918,car (1).jpg,0.10480987784980271,0.14160384435699516,0.1386459262545021,0.13801265663059434,0.13913341780107233,0.13758960516328872,0.1402177903315771,0.13933804802156066,0.13937372140571133,0.14008117646946627,0.13418344517748895,0.14106364739699928,0.13112076444873386,0.13951601261091381,0.14007373333856266,0.13418876489266932
1.6380000114440918,car (1).jpg,0.1047435155205149,0.14159112621440006,0.1386320681729398,0.13803565657563885,0.139129327431837,0.13757688702069365,0.14020500513374867,0.1393281238470225,0.13936665825446345,0.14007862837059837,0.134153158563752,0.1410600934696309,0.13106589091609608,0.1395033615235521,0.14006517262043627,0.13435559831328373
1.6380000114440918,car (1).jpg,0.10482950268143447,0.14160174329301636,0.13864223821666696,0.13801866924985282,0.13912494648992377,0.13758589477370914,0.14021240356116338,0.13933114133252397,0.13937597893190132,0.14008580328056852,0.13419059773571465,0.14106863183601281,0.13113547189658545,0.13950995528816643,0.14007554382986354,0.13395881014571312
1.6390001773834229,car (1).jpg,0.10475674775323245,0.14159179676673372,0.13863374455377395,0.13802146321790973,0.1391332389871167,0.13757907749165027,0.14020931902042855,0.13933259419591357,0.13936241142301695,0.14007020176293872,0.1341520633282737,0.1410523374143049,0.13108542634075002,0.13950488144217507,0.1400611046029454,0.13440559916563025
1.6390001773834229,car (1).jpg,0.10478316751517862,0.14159023214462185,0.13862969888802754,0.13802859342439097,0.1391198279404435,0.13757402599740337,0.14020120533719127,0.1393224688556753,0.139369631036476,0.14008142233865528,0.13416983296511567,0.14106360269351037,0.131098680925212,0.13950025463107282,0.14006836891989338,0.13408371169372937
1.6390001773834229,car (1).jpg,0.10481171069284805,0.14159731764761418,0.13863933248988777,0.1380062193281912,0.1391276286992584,0.13758334667484123,0.14021213534022992,0.13933246008544684,0.13936565242596297,0.14007228047517306,0.13418854137522476,0.14105517608585072,0.13113368375702902,0.13950789892767654,0.140065306730903,0.134192922317138
1.6390001773834229,car (1).jpg,0.10474485662518222,0.14158223022010685,0.1386231721786466,0.1380270288022791,0.13912177254221111,0.1375682592473339,0.14019698085748922,0.13932106069577463,0.13936120442881636,0.14007207930947296,0.13415702541554278,0.14105401379513904,0.13107409400631118,0.13949793004964947,0.14005931646338898,0.13436413667966565
1.6390001773834229,car (1).jpg,0.10483531413499285,0.14159852464181477,0.13863893015848758,0.1380158752817959,0.13912183959744448,0.13758254201204084,0.14020871552332825,0.13932825795748924,0.13937530837956766,0.14008419395496774,0.13419030716303673,0.14106780482146797,0.13112836404184866,0.139508413017799,0.14007447094612968,0.13395550208753373
1.6390001773834229,car (1).jpg,0.10477134344236176,0.14159119326963343,0.1386325152078289,0.13801989859579786,0.13913149555104917,0.1375772670003494,0.14020721795644975,0.1393303813732125,0.13936019860031587,0.14006749720185963,0.13414828588346075,0.14105034810904837,0.13107349050921088,0.13950264626772954,0.14005813182093285,0.13440548740690797
1.8900001049041748,car (1).jpg,0.10480770973059055,0.14158965099926601,0.13862824602463794,0.13802745348542375,0.13911719043459778,0.1375720590438913,0.14019867959006782,0.1393201219225075,0.13937025688532076,0.14008173526307766,0.1341712187732719,0.14106480968771096,0.1310865886314617,0.1395007687211953,0.1400682571611711,0.13408628214434173
1.8910000324249268,car (1).jpg,0.10482152310866392,0.14159961987729308,0.1386417241265445,0.1380087227235702,0.1391290368591591,0.13758522422137548,0.1402130964652415,0.1393329741755693,0.1393681334695975,0.1400743144839185,0.13418498744785637,0.14105774653646308,0.13111752344578784,0.13950993293642197,0.14006705016697052,0.13417428096226228
1.8910000324249268,car (1).jpg,0.10475393143343108,0.14158453244978575,0.13862458033854727,0.13802895105230226,0.13912268896373378,0.13756928742757885,0.14019736083714496,0.13932164184113047,0.13936196438812784,0.14007274986180662,0.13414493312179246,0.14105497492015062,0.13105366451187903,0.13949835473279412,0.14005958468432245,0.13434887043820268
1.8910000324249268,car (1).jpg,0.10483987389086173,0.14160022337439337,0.1386397124695435,0.13801786458705242,0.13912226428058913,0.13758330197135232,0.1402088943372839,0.13932850382667825,0.13937405668187816,0.1400840151410121,0.13417928775302027,0.1410673354348344,0.1311177469632324,0.13950789892767654,0.14007304043448454,0.13394318627633886
1.8910000324249268,car (1).jpg,0.10477194693946205,0.14158978510973275,0.13863095058571703,0.13801880336031955,0.13912955094928156,0.13757657409627128,0.14020540746514887,0.1393297778761122,0.13935966215844894,0.1400678548297709,0.1341534714881744,0.14105070573695966,0.1310821406343151,0.13950362974448557,0.14005817652442176,0.13440249227315096
1.8910000324249268,car (1).jpg,0.10480580983231184,0.1415888016329767,0.1386278213414933,0.13802899575579117,0.13911721278634223,0.13757234961656922,0.14019859018309,0.13932025603297424,0.1393666806062079,0.14007862837059837,0.13417528679076277,0.14106176985046504,0.13109286947165363,0.13949817591883848,0.14006521732392518,0.13409142304556645
1.8910000324249268,car (1).jpg,0.10483493415533711,0.1415950601214242,0.13863680674276432,0.13800574994155765,0.13912333716432299,0.13758037389282868,0.14020777675006113,0.1393276768121334,0.13936330549279516,0.14006948650711615,0.13419321288981592,0.14105352205676103,0.13113042040233855,0.13950510495961962,0.14006278098377956,0.13417434801749564
1.8920001983642578,car (1).jpg,0.10477076229700592,0.1415799503421724,0.13862060172803423,0.13802588886331188,0.1391179727456537,0.13756483943043224,0.14019340457837637,0.13931723854747277,0.13935776226017024,0.14006827951291556,0.13416064639814454,0.1410510857166154,0.13107492102085602,0.139495158433337,0.14005594134997623,0.13436717651691157
1.8920001983642578,car (1).jpg,0.10486220328357258,0.1415963565226026,0.13863597972821948,0.13801529413644006,0.13911795039390926,0.13757927865735037,0.14020545216863778,0.13932546398943232,0.1393712403620768,0.14008023769619915,0.13419368227644948,0.14106431794933294,0.13113551660007436,0.13950494849740844,0.14007042528038327,0.13395147877353178
1.8920001983642578,car (1).jpg,0.10479045418387105,0.14158708054865365,0.1386281119141712,0.13801629996494055,0.13912624289110218,0.13757317663111407,0.14020270290406978,0.13932705096328865,0.13935621998980283,0.14006349623960213,0.13416104872954474,0.14104701769912453,0.13109396470713194,0.1394997181892059,0.14005457789356446,0.13440533094469678
1.8920001983642578,car (1).jpg,0.10481850562316246,0.1415837501387298,0.13862227810886837,0.13802360898537744,0.13911146838801722,0.13756671697696649,0.14019275637778716,0.13931524924221625,0.13936355136198417,0.14007514149846334,0.13417551030820732,0.14105861825449684,0.13110026789906834,0.1394950690263592,0.14006181985876798,0.13409667570551345
1.8920001983642578,car (1).jpg,0.10484762994618772,0.14159599889469132,0.1386369185014866,0.13800559347934646,0.13912324775734516,0.13758108914865125,0.14020842495065033,0.13932995669006784,0.1393651383358405,0.14007111818446139,0.13419471045669443,0.14105542195503973,0.13113886936174265,0.1395074742445319,0.14006452441984707,0.1341730739680617
1.8920001983642578,car (1).jpg,0.10478276518377842,0.14158149261253983,0.13862109346641224,0.13802606767726752,0.13911855389100955,0.13756604642463283,0.14019380690977656,0.1393185796521401,0.1393567340799253,0.1400665584285925,0.13415818770625446,0.14104976696369254,0.1310724846807104,0.13949390673564752,0.14005442143135327,0.1343694116913571
1.8920001983642578,car (1).jpg,0.10487901179540297,0.14159450132781282,0.13863285048399573,0.13801131552592702,0.1391149776118967,0.13757632822708227,0.14020205470348057,0.1393224241521864,0.13936965338822047,0.14007798017000916,0.13419084360490366,0.1410624404027987,0.13112992866396053,0.13950278037819627,0.14006832421640447,0.1339518140496986
1.8920001983642578,car (1).jpg,0.10480862615211321,0.141586901734698,0.13862665905078161,0.13801234370617196,0.13912441004805684,0.13757179082295784,0.1402006912470688,0.13932530752722114,0.13935427538803521,0.14006099284422313,0.1341528679910741,0.1410447378211901,0.13107856435520224,0.13949712538684908,0.14005214155341883,0.13440244756966205
1.8930001258850098,car (1).jpg,0.10483321307101405,0.1415831019381406,0.13862022174837849,0.13802101618302062,0.13910930026880505,0.13756495118915452,0.14019009652019698,0.13931323758521527,0.1393627914026727,0.1400743591874074,0.13416364153190155,0.14105785829518536,0.1310844875674829,0.1394945102327478,0.14006079167852303,0.1341023530486051
1.8930001258850098,car (1).jpg,0.10486432669929584,0.141594903659213,0.13863475038227444,0.13800266540082282,0.13912090082417736,0.13757883162246126,0.1402057427413157,0.13932696155631083,0.13936149500149428,0.14006729603615953,0.1341910671223482,0.1410517786206935,0.13112923575988242,0.13950324976482983,0.1400604564023562,0.13416712840403658
1.8930001258850098,car (1).jpg,0.1047944327943841,0.14157751400202678,0.13861693604194356,0.13802065855510934,0.13911495526015225,0.13756186664841968,0.14018964948530788,0.1393137293235933,0.13935436479501304,0.14006369740530222,0.13416703899705876,0.14104742003052473,0.13108495695411645,0.13949129158154625,0.1400524097743523,0.13438040874962912
1.8930001258850098,car (1).jpg,0.1048854490978061,0.14159168500801145,0.13863083882699476,0.13800829804042555,0.13911334593455146,0.13757427186659238,0.14020055713660207,0.13931994310855186,0.13936616651608544,0.14007402391124057,0.1342024218085315,0.1410590429376415,0.13114649130660191,0.13949873471244986,0.14006523967566964,0.13396075474748073
1.8930001258850098,car (1).jpg,0.10481745509117306,0.14158198435091784,0.13862225575712392,0.13800655460435804,0.13912056554801053,0.13756758869500024,0.14019666793306684,0.1393192278527293,0.1393514367164894,0.14005739421336583,0.1341705705726827,0.1410416309287108,0.13110824747183888,0.13949408554960316,0.14004988402722884,0.13441230468896684
1.8940000534057617,car (1).jpg,0.10484295843159656,0.14157858688576064,0.13861615373088762,0.13801616585447382,0.1391067298181927,0.13756159842748622,0.14018754842132908,0.13931010834099153,0.13935829870203717,0.14006912887920486,0.13418398161935588,0.14105309737361638,0.1311131425038746,0.13949033045653467,0.14005672366103217,0.13412463773782704
1.8940000534057617,car (1).jpg,0.10487624017909052,0.1415900533306662,0.13863010121942773,0.13799703276122008,0.13911658693749748,0.1375745624392703,0.140201585316847,0.13932305000103115,0.13935791872238143,0.14006367505355777,0.13420588632892208,0.14104869407995868,0.13115067108281506,0.13950047814851738,0.14005743891685474,0.13417703022683028
1.8940000534057617,car (1).jpg,0.10481121895447003,0.14157454122001423,0.13861394090818654,0.13801701522076312,0.13911155779499504,0.13755909503210723,0.14018681081376205,0.1393125223293927,0.13935159317870058,0.14006135047213442,0.13416967650290448,0.1410454307252682,0.13108799679136238,0.13949017399432348,0.1400498616754844,0.13439504914224734
1.8940000534057617,car (1).jpg,0.10489772020551207,0.14158994157194393,0.1386286707077826,0.1380070239909916,0.1391111331118504,0.1375726625409916,0.14019816549994535,0.13931904903877365,0.13936444543176238,0.14007259339959544,0.1342061321981111,0.1410578359434409,0.1311497546612924,0.13949799710488284,0.14006389857100232,0.1339713271226081
1.8940000534057617,car (1).jpg,0.10483669994314908,0.14158033032182815,0.13862037821058967,0.13800461000259043,0.13911821861484272,0.13756559938974372,0.1401947456830437,0.1393188255213291,0.13934900037634376,0.14005468965228673,0.1341699223720935,0.14103917223682072,0.131103933585159,0.1394915150989908,0.1400476488527833,0.1344108294738328
1.8940000534057617,car (1).jpg,0.10486392436789564,0.14157724578109332,0.13861403031516437,0.1380145788806175,0.1391041817193248,0.1375585138867514,0.1401849332672278,0.13930633089617858,0.1393558400101471,0.14006599963498112,0.13417591263960751,0.14105016929509273,0.13110357595724773,0.1394864636047439,0.14005413085867535,0.1341173063656457
1.8940000534057617,car (1).jpg,0.1048987036822681,0.1415885557637877,0.13862748606532646,0.13799464112456336,0.13911394943165176,0.13757147789853547,0.1401991936801903,0.13932014427425196,0.1393560858793361,0.14006132812038996,0.13419439753227205,0.1410464812572576,0.13114092572223254,0.139497415959527,0.14005547196334267,0.13415894766556594
1.8949999809265137,car (1).jpg,0.10482885448084527,0.141573155411858,0.1386110128296629,0.13801431065968403,0.13910909910310496,0.13755639047102813,0.1401843297701275,0.13930874488457975,0.13934716753329843,0.1400570142337101,0.13415903707254376,0.14104091567288823,0.1310781396720576,0.13948503309309876,0.1400454583818267,0.1343890141712444
1.8949999809265137,car (1).jpg,0.1049170544644659,0.14158562768526406,0.1386227698472464,0.13800161486883342,0.1391049193268918,0.13756714166011114,0.14019242110162033,0.13931301406777072,0.13935955039972667,0.14006832421640447,0.1341937269799384,0.1410536338154833,0.131138198809409,0.13949334794203613,0.14005929411164453,0.13396388399170447
1.8949999809265137,car (1).jpg,0.10485185442588978,0.14157972682472786,0.1386183665535887,0.13800248658686717,0.1391156258124859,0.1375642582850764,0.14019266697080934,0.1393168809195615,0.13934698871934278,0.14005267799528576,0.13416898359882637,0.1410377864286645,0.13110451473051485,0.1394908668984016,0.14004597247194916,0.13441150002616645
1.8960001468658447,car (1).jpg,0.10487451909476746,0.14157487649618106,0.13861152691978537,0.13801283544454998,0.13910143245475678,0.1375568598576617,0.14018285455499346,0.139305615640356,0.13935311309732354,0.1400629597977352,0.13418371339842242,0.14104795647239166,0.13111054970151778,0.1394847648721653,0.14005167216678527,0.1341335113803758
2.119000196456909,car (2).jpg,0.10490762202830577,0.14158587355445307,0.13862464739378064,0.1379928753367514,0.139110574318239,0.13756924272408994,0.1401962432499222,0.13931661269862802,0.13935356013221264,0.14005793065523275,0.13419871141895193,0.1410437766961785,0.13114671482404647,0.13949413025309207,0.1400530579749415,0.13415928294173277
2.119000196456909,car (2).jpg,0.10483350364369197,0.14157123316183484,0.1386091576348731,0.1380135283486281,0.13910706509435952,0.13755471409019399,0.14018236281661545,0.13930606267524512,0.13934674285015378,0.1400556507772983,0.13415718187775397,0.14104035687927685,0.13107715619530155,0.13948472016867638,0.1400451007539154,0.13439560793585872
2.119000196456909,car (2).jpg,0.10492096601974558,0.14158473361548585,0.13862194283270154,0.13800228542116708,0.13910355587048004,0.1375664040525441,0.14019090118299737,0.1393119188322924,0.13935769520493688,0.14006582082102548,0.13419330229679374,0.14105180097243797,0.13113636596636366,0.13949113511933506,0.14005739421336583,0.1339706789220189
2.119000196456909,car (2).jpg,0.10485413430382422,0.14157793868517143,0.1386173607250882,0.13800181603453351,0.13911441881828532,0.13756329716006482,0.14019226463940915,0.13931759617538406,0.13934824041703228,0.14005397439646416,0.13417197873258338,0.14103944045775418,0.13111256135851876,0.13949290090714703,0.1400476041492944,0.1344235699681723
2.120000123977661,car (2).jpg,0.1048660477836189,0.1415773575398156,0.13861420912912,0.13801694816552976,0.13910453934723607,0.1375594526600185,0.14018607320619503,0.13930845431190184,0.1393562870450362,0.14006593257974775,0.1341910671223482,0.14105121982708213,0.1311234913615574,0.1394877153024334,0.14005511433543139,0.13415449966841933
2.120000123977661,car (2).jpg,0.10490087180148026,0.14158886868821008,0.13862817896940458,0.1379979715344872,0.13911426235607413,0.1375729084101806,0.14020082535753553,0.13932186535857502,0.139356376452014,0.14006054580933402,0.13421880563721725,0.14104659301597988,0.13117139114992513,0.13949784064267165,0.14005598605346514,0.13417852779370879
2.120000123977661,car (2).jpg,0.10482968149539011,0.14157223899033533,0.13861069990524053,0.1380169258137853,0.1391091214548494,0.13755654693323932,0.14018475445327216,0.13931026480320272,0.13934884391413258,0.14005714834417682,0.13417828192451978,0.1410419885566221,0.1311032406810809,0.13948720121231092,0.14004704535568302,0.13442520164551755
2.120000123977661,car (2).jpg,0.10491678624353244,0.14158529240909723,0.13862259103329075,0.13800590640376884,0.13910500873386963,0.13756749928802242,0.14019367279930983,0.13931368462010438,0.1393599303793824,0.14006774307104863,0.13420409818936566,0.14105361146373885,0.13115456028635028,0.13949287855540257,0.1400591600011778,0.13399459528858607
2.120000123977661,car (2).jpg,0.10485545305674708,0.14157977152821677,0.13861888064371117,0.13800570523806874,0.139115826978186,0.13756548763102144,0.1401946339243214,0.13931786439631752,0.13934631816700913,0.14005202979469655,0.13417200108432784,0.14103740644900875,0.13111222608235193,0.1394901069390901,0.14004514545740432,0.13443333768049928
2.120000123977661,car (2).jpg,0.10487360267324479,0.14157434005431413,0.1386104093325626,0.13801645642715174,0.1391004713297452,0.13755656928498378,0.14018258633406,0.13930543682640037,0.13935385070489056,0.14006418914368024,0.1341862167938014,0.14104954344624798,0.13111175669571837,0.1394858154041547,0.14005247682958566,0.13416482617435768
2.120000123977661,car (2).jpg,0.10491356759233088,0.14158772874924286,0.13862605555368132,0.13799891030775432,0.1391112225188282,0.1375715673055133,0.14019816549994535,0.13932014427425196,0.139353381318257,0.14005857885582196,0.13420521577658842,0.14104455900723445,0.13115346505087197,0.13949462199147009,0.14005323678889714,0.13417741020648602
2.120000123977661,car (2).jpg,0.10483464358265919,0.14157067436822346,0.1386080623993948,0.13801723873820768,0.13910646159725923,0.13755509406984973,0.14018240752010436,0.13930733672467907,0.13934423945477478,0.14005314738191932,0.13416312744177908,0.1410378758356423,0.13108815325357356,0.1394827085116754,0.14004266441376978,0.13443076722988692
2.121000051498413,car (2).jpg,0.10492648690062605,0.14158171612998438,0.13861805362916632,0.1380045205956126,0.13910049368148966,0.13756403476763185,0.140188330732385,0.13930959425086906,0.13935532592002461,0.14006338448087985,0.13418623914554587,0.14104936463229234,0.13113225324538388,0.13948834115127814,0.14005417556216426,0.13399104136121767
2.121000051498413,car (2).jpg,0.10486998169064303,0.14157644111829293,0.13861414207388664,0.13800315713920083,0.1391109319461503,0.1375613525582972,0.14018895658122976,0.13931281290207062,0.13934330068150766,0.14004816294290579,0.13416889419184855,0.14103409839082937,0.13110891802417254,0.13948673182567736,0.1400414574195692,0.13443523757877798
2.121000051498413,car (2).jpg,0.10488614200188422,0.14157241780429097,0.1386086658964951,0.13801636702017392,0.13909859378321096,0.1375552505320609,0.14018057467705902,0.13930380514905513,0.13935020737054435,0.14005947292560017,0.134182171128055,0.1410451848560792,0.13111014737011759,0.13948152386921928,0.1400480511841835,0.13417676200589682
2.121999979019165,car (2).jpg,0.104928006819249,0.14158529240909723,0.1386228145507353,0.13799645161586424,0.13910811562634892,0.13756848276477845,0.14019525977316616,0.13931538335268298,0.13935204021358968,0.1400564107366098,0.13420879205570127,0.14104274851593357,0.1311595000218749,0.1394925656309802,0.14005126983538507,0.134176672598919
2.121999979019165,car (2).jpg,0.10485250262647898,0.1415681039176111,0.13860513432087115,0.13801404243875057,0.13910333235303549,0.137552210694815,0.14017956884855853,0.13930507919848908,0.13934144548671787,0.1400496605097843,0.13417957832569818,0.1410348807018853,0.13110511822761514,0.13947957926745166,0.14003962457652386,0.13444867097719562
2.121999979019165,car (2).jpg,0.10493688046179776,0.14158041972880597,0.1386167572279879,0.1380036265258344,0.1390991749285668,0.13756242544203107,0.1401876378283069,0.1393085660706241,0.13935559414095808,0.14006307155645747,0.13422030320409575,0.1410495881497369,0.13116819485046802,0.1394883187995337,0.14005518139066475,0.13402517247500093
2.121999979019165,car (2).jpg,0.10488687960945124,0.1415754576415369,0.13861367268725308,0.13800224071767817,0.13911075313219465,0.13756083846817474,0.14018918009867432,0.13931355050963765,0.1393413784314845,0.14004653126556055,0.13419824203231837,0.14103231025127294,0.1311375506088198,0.1394854577762434,0.14004051864630207,0.13446612768961522
2.121999979019165,car (2).jpg,0.10490527509513796,0.14157103199613474,0.13860663188774966,0.13801440006666185,0.13909756560296602,0.13755283654365974,0.14017876418575814,0.13930143586414287,0.139347882789121,0.14005779654476602,0.13420640041904455,0.1410434861235006,0.13113202972793933,0.13947966867442949,0.14004677713474956,0.13421205541039175
2.121999979019165,car (2).jpg,0.10494148492115556,0.14158267725499596,0.1386207134867565,0.13799379175827406,0.13910579104492557,0.137565957017655,0.14019275637778716,0.1393127681985817,0.13934991679786643,0.14005464494879782,0.1342290874396667,0.1410411391903328,0.1311704076731691,0.13949084454665714,0.1400496605097843,0.13419985135791915
2.121999979019165,car (2).jpg,0.10486562310047425,0.1415685062490113,0.13860569311448254,0.13801500356376215,0.13910389114664687,0.13755281419191528,0.1401814910985817,0.1393055262333782,0.13934251837045172,0.14005073339351815,0.1341870214566018,0.14103599828910807,0.13109510464609916,0.13948118859305245,0.14004058570153544,0.13447180503270686
2.121999979019165,car (2).jpg,0.10495304077303895,0.1415815596677732,0.13861727131811039,0.13800530290666854,0.1390993760942669,0.13756311834610918,0.14019016357543035,0.1393085660706241,0.13935364953919047,0.14006103754771204,0.13421755393952775,0.14104735297529136,0.1311358965797301,0.13948603892159925,0.1400522533121411,0.1340321909227599
2.123000144958496,car (2).jpg,0.10489964245553522,0.14157534588281462,0.13861284567270823,0.1380015701653445,0.13910916615833832,0.13756032437805227,0.14019150468009767,0.13931140474216994,0.13934010438205055,0.14004472077425967,0.13418509920657865,0.14103005272508295,0.13108880145416277,0.13948214971806402,0.14003803760266753,0.13445566707321013
2.123000144958496,car (2).jpg,0.10491028188589595,0.14156868506296694,0.13860343558829255,0.13801361775560592,0.13909463752444237,0.1375509589971255,0.1401802394008922,0.13929848543387477,0.1393480839548211,0.14005757302732147,0.1341821264245661,0.14104180974266645,0.13107069654115397,0.13947808170057316,0.14004557014054897,0.13420000782013033
2.123000144958496,car (2).jpg,0.10495824872949704,0.1415835042695408,0.13861977471348938,0.13799703276122008,0.13910581339667002,0.13756691814266658,0.14019671263655575,0.13931265643985943,0.13935014031531098,0.14005453319007555,0.13420336058179863,0.1410388369606539,0.13111092968117352,0.1394889670001229,0.14004836410860588,0.13417005648256022
2.123000144958496,car (2).jpg,0.1048732450453335,0.14156609226061012,0.13860124511733593,0.13801448947363967,0.13910136539952342,0.1375503555000252,0.14018184872649297,0.1393024193408989,0.13933994791983936,0.14004753709406104,0.13415689130507605,0.14102976215240504,0.13104266745360701,0.1394757124156609,0.14003674120148912,0.13443586342762273
2.123000144958496,car (2).jpg,0.10494765400262522,0.14157843042354945,0.13861213041688566,0.1380044758921237,0.1390968726988879,0.1375598102879298,0.14018942596786332,0.13930360398335503,0.13935485653339105,0.14006208807970144,0.13419108947409267,0.1410449389868902,0.13109586460541064,0.139484407244254,0.14005272269877467,0.13398576634952622
2.123000144958496,car (2).jpg,0.10488960652227479,0.14157514471711452,0.13861072225698498,0.13800266540082282,0.13910914380659387,0.13755954206699633,0.14019237639813142,0.1393108235968141,0.13934160194892906,0.14004657596904946,0.1341627698138678,0.14102846575122663,0.13106144291894947,0.13948223912504185,0.14003942341082376,0.13440264873536215
2.4670000076293945,car (2).jpg,0.10489233343509834,0.14156922150483386,0.13860222859409196,0.1380152717846956,0.13909548689073167,0.13755089194189213,0.1401805299735701,0.1392988654135305,0.13934672049840932,0.14005717069592127,0.13416227807548978,0.14103814405657578,0.13104970825311044,0.13947593593310545,0.1400438490562259,0.1341600205492998
2.4680001735687256,car (2).jpg,0.10492722450819307,0.1415797491764723,0.1386147679227314,0.13799318826117377,0.13910241593151282,0.13756289482866463,0.14019297989523172,0.13930959425086906,0.1393470334228317,0.14005258858830794,0.1341811652995545,0.14103409839082937,0.13109215421583106,0.13948445194774292,0.14004536897484887,0.13411636759237858
2.4680001735687256,car (2).jpg,0.10484083501587331,0.14156419236233142,0.13859818292834555,0.13801111436022692,0.1390998678326449,0.13754762858720165,0.14017901005494715,0.13929893246876388,0.1393377350971383,0.1400467100795162,0.1341354559821434,0.14102681172213694,0.13101854992133974,0.13947269493015943,0.14003457308227696,0.1343902658689339
2.4680001735687256,car (2).jpg,0.10491171239754109,0.14157608349038164,0.13860933644882875,0.1380012795926666,0.139094570469209,0.13755672574719496,0.14018531324688355,0.1393009664775093,0.13934996150135534,0.14005873531803315,0.13416692723833648,0.14103995454787666,0.1310698248231202,0.1394783052180177,0.14004782766673896,0.13394973533746427
2.4680001735687256,car (2).jpg,0.10484494773685309,0.14157022733333435,0.1386059166319271,0.13799685394726444,0.13910465110595835,0.13755466938670508,0.14018607320619503,0.13930541447465591,0.13933617047502642,0.14004232913760295,0.1341420050432688,0.14102296722209062,0.1310392699884498,0.13947649472671683,0.14003347784679865,0.13437515608968212
2.4680001735687256,car (2).jpg,0.10484311489380775,0.14156448293500934,0.13859749002426744,0.13801028734568208,0.13909090478311834,0.13754597455811196,0.14017420442988926,0.13929280809078312,0.13934312186755202,0.14005433202437545,0.13414437432818108,0.14103450072222956,0.1310323185959242,0.13947139852898102,0.1400398033904795,0.13413883109555616
2.4680001735687256,car (2).jpg,0.10488082228670385,0.14157818455436044,0.1386135162250419,0.1379916683425508,0.1391008736611454,0.1375611066891082,0.140190342389386,0.13930449805313325,0.13934604994607566,0.14005223096039665,0.1341742139070289,0.14103320432105115,0.13109682573042222,0.13948275321516432,0.14004398316669264,0.13409426171711228
2.4690001010894775,car (2).jpg,0.10479794201826358,0.14156354416174222,0.13859867466672357,0.138011069656738,0.1390996219634559,0.13754774034592393,0.14017740072934637,0.13929826191643022,0.13933681867561562,0.14004626304462708,0.13413512070597658,0.14102605176282546,0.13103379381105826,0.1394721584882925,0.14003298610842063,0.13439326100269092
2.4690001010894775,car (2).jpg,0.10487458615000082,0.14157434005431413,0.13860855413777282,0.13800114548219986,0.13909385521338644,0.13755612225009467,0.14018397214221623,0.13929996064900882,0.13934946976297732,0.1400585118005886,0.13417030235174923,0.14103937340252082,0.13109691513740004,0.139478662845929,0.14004666537602728,0.13395927953234668
2.4690001010894775,car (2).jpg,0.10481665042837267,0.14156957913274515,0.13860582722494927,0.13799660807807543,0.13910440523676934,0.13755446822100498,0.1401863414271285,0.13930483332930008,0.13933565638490394,0.14004161388178038,0.13414500017702582,0.14102225196626805,0.13107259643943267,0.1394763606162501,0.14003267318399826,0.13437732420889428
2.4690001010894775,car (2).jpg,0.10482246188193105,0.1415622030570749,0.1385960148091334,0.13800941562764832,0.13908994365810676,0.13754467815693355,0.14017304213917758,0.1392925175181052,0.13933925501576125,0.14005084515224042,0.1341488670288166,0.14103099149835008,0.1310596324276486,0.13946882807836866,0.14003571302124418,0.13415389617131904
2.4690001010894775,car (2).jpg,0.10486881939993135,0.14157507766188115,0.13861110223664072,0.13798920965066072,0.13909756560296602,0.13755817861058456,0.14018669905503978,0.13930329105893266,0.13934102080357322,0.1400476488527833,0.13417302926457278,0.1410287339721601,0.13110330773631426,0.13947774642440633,0.14003848463755664,0.1340956475252685
2.4690001010894775,car (2).jpg,0.10478504506171286,0.14155708450759463,0.1385931537858431,0.1380051240927129,0.13909334112326396,0.13754107952607625,0.1401710304821766,0.13929028234365967,0.13933111898077952,0.14004107743991345,0.13413272906931986,0.1410209332133452,0.13103515726747003,0.1394664587934564,0.1400271970066067,0.13439683728180377
2.4700000286102295,car (2).jpg,0.10486618189408563,0.14156973559495634,0.13860497785865997,0.13799765861006483,0.1390886696086728,0.13755194247388153,0.14017836185435795,0.13929439506463945,0.1393428312948741,0.14005328149238605,0.13416648020344737,0.1410340760390849,0.13108770621868446,0.13947303020632626,0.14003989279745732,0.133963369901582
2.4700000286102295,car (2).jpg,0.10481182245157032,0.14156484056292062,0.13860234035281424,0.13799144482510625,0.1390987278936777,0.13755066842444758,0.14018014999391437,0.13930150291937624,0.1393314766086908,0.14003857404453446,0.13414529074970374,0.1410191227220443,0.131063678093395,0.13947370075865992,0.14002822518685165,0.1343771677466831
2.4700000286102295,car (2).jpg,0.1048085814486243,0.14156113017334104,0.13859594775390002,0.13800760513634744,0.13908853549820607,0.13754378408715534,0.14017161162753244,0.13929169050356036,0.1393381821320274,0.14005006284118449,0.13414897878753887,0.14103036564950533,0.13105920774450394,0.1394687610231353,0.1400347071927437,0.13415959586615514
2.4700000286102295,car (2).jpg,0.10485556481546936,0.14157228369382424,0.13860942585580657,0.1379853204471255,0.13909528572503158,0.13755603284311685,0.14018482150850553,0.1393016146780985,0.139339880864606,0.140046799486494,0.13417933245650918,0.14102821988203762,0.13111658467252071,0.13947841697674,0.1400379034922008,0.13409468640025693
2.4710001945495605,car (2).jpg,0.10477585849474173,0.14155645865874988,0.13859328789630984,0.13800284421477846,0.13909334112326396,0.13754107952607625,0.1401711869443878,0.13929224929717174,0.13932939789645646,0.14003949046605713,0.13413764645310003,0.1410196815156557,0.1310491271077546,0.1394664140899675,0.14002581119845048,0.13440298401152898
2.4710001945495605,car (2).jpg,0.10486222563531704,0.14156986970542307,0.13860544724529353,0.13799604928446405,0.139089071940073,0.13755189777039262,0.14017867477878032,0.1392952667826732,0.1393443735652415,0.1400547120040312,0.13416960944767112,0.14103590888213025,0.13110102785837982,0.13947463953192704,0.14004141271608028,0.13396538155858298
2.4710001945495605,car (2).jpg,0.10481412468124922,0.14156530994955419,0.13860310031212572,0.13798994725822775,0.1390991749285668,0.1375511601628256,0.14018082054624803,0.13930081001529812,0.13933120838775734,0.1400385963962789,0.13414993991255045,0.14101945799821114,0.1310777373406574,0.13947390192436002,0.14002813577987383,0.13437938056938417
2.4710001945495605,car (2).jpg,0.10481627044871693,0.1415592973302957,0.138594964277144,0.13800574994155765,0.13908728380051658,0.13754262179644366,0.14016921999087573,0.1392901705849374,0.13933579049537068,0.1400479617772057,0.1341548125928417,0.14102842104773772,0.1310632757619948,0.13946648114520085,0.14003211439038687,0.13416918476452647
2.4710001945495605,car (2).jpg,0.10486638305978573,0.14157132256881266,0.13860877765521737,0.13798458283955847,0.13909369875117525,0.13755522818031646,0.14018258633406,0.13930125705018723,0.13933865151866096,0.14004536897484887,0.1341832216600444,0.14102678937039248,0.13111890925394407,0.1394765617819502,0.14003613770438883,0.13408927727809875
2.4710001945495605,car (2).jpg,0.10478891191350363,0.1415563021965387,0.13859248323350945,0.13800253129035608,0.1390924694052302,0.1375404089737426,0.14016966702576483,0.13929204813147164,0.13932901791680072,0.14003942341082376,0.1341421168019911,0.14101936859123332,0.13105328453222329,0.1394662576277563,0.14002538651530583,0.13440103940976136
2.4710001945495605,car (2).jpg,0.10486890880690918,0.14156591344665448,0.1386015580417583,0.1379931659094293,0.13908560741968243,0.13754803091860185,0.14017436089210045,0.13929298690473876,0.13933807037330512,0.14004907936442845,0.1341693188749932,0.14102991861461622,0.13110252542525833,0.1394689621888354,0.14003544480031072,0.13396149235504776
2.4720001220703125,car (2).jpg,0.1048241829662541,0.14156153250474124,0.1385990099428904,0.1379861251099259,0.13909568805643177,0.1375465557034678,0.1401762831421236,0.13929779252979665,0.13932579926559915,0.1400339472334322,0.13414739181368254,0.14101436180047533,0.13107684327087918,0.13946864926441302,0.14002303958213802,0.1343676682552896
2.4720001220703125,car (2).jpg,0.10482626167848845,0.14155491638838247,0.13859006924510828,0.13800163722057787,0.1390829252103478,0.13753707856381875,0.1401640343861621,0.1392848732215015,0.13933165542264644,0.14004494429170422,0.1341513704241956,0.14102500123083606,0.13106066060789354,0.13946279310736573,0.14002831459382947,0.13416730721799222
2.4739999771118164,car (2).jpg,0.10488048701053702,0.1415689979873893,0.13860658718426075,0.1379827723482576,0.13909130711451853,0.13755218834307054,0.14017961355204744,0.13929819486119685,0.13933554462618167,0.14004373729750363,0.1341833781222556,0.14102464360292477,0.13111513180913112,0.13947396897959338,0.14003318727412073,0.134083644638496
2.4739999771118164,car (2).jpg,0.1047946786635731,0.1415533517662706,0.13859071744569748,0.13800058668858847,0.13909021187904022,0.13753783852313023,0.14016700716817465,0.13928994706749284,0.13932526282373223,0.1400358471317109,0.13414497782528137,0.14101565820165374,0.13105469269212397,0.1394630613282992,0.14002151966351506,0.1344037663225849
2.4739999771118164,car (2).jpg,0.10487637428955725,0.14156235951928609,0.13859802646613437,0.13799090838323932,0.13908234406499195,0.1375440076045999,0.14017040463333186,0.13928945532911483,0.13933637164072651,0.14004704535568302,0.13417515268029603,0.1410278846058708,0.13110415710260356,0.13946728580800125,0.14003343314330974,0.1339665214975502
2.4739999771118164,car (2).jpg,0.10483050850993496,0.14155976671692927,0.13859769118996754,0.13798570042678124,0.13909479398665356,0.13754499108135593,0.1401744279473338,0.1392957138175623,0.13932360879464253,0.14003106385839748,0.13414602835727077,0.1410114784254406,0.13107512218655612,0.13946634703473412,0.14002049148327012,0.13436429314187684
2.4760000705718994,car (2).jpg,0.10482512173952123,0.1415512507022918,0.1385868505939067,0.13799969261881026,0.13908118177428028,0.1375345975201842,0.14016191097043884,0.139283621523812,0.13932995669006784,0.14004241854458077,0.1341427650025803,0.14102216255929023,0.1310571290322696,0.1394612061335094,0.1400260570676395,0.1341731633750395
2.4760000705718994,car (2).jpg,0.1048751002401233,0.1415658463914211,0.138603212070848,0.13798060422904543,0.13908960838193993,0.13754993081688055,0.14017740072934637,0.1392964737768738,0.13933279536161366,0.14004009396315742,0.13417074938663834,0.14102091086160073,0.13110811336137215,0.13946994566559143,0.14003003567815253,0.1340732510773243
2.4760000705718994,car (2).jpg,0.10478953776234838,0.14154932845226864,0.1385863588555287,0.1379965186710976,0.13908759672493895,0.13753461987192867,0.14016392262743982,0.13928704134071365,0.13932298294579779,0.1400330084601651,0.1341312538541858,0.1410127301231301,0.1310413710524286,0.1394584121654525,0.14001888215766933,0.1343990724562493
2.4760000705718994,car (2).jpg,0.1048635443882399,0.1415598561239071,0.1385959030504111,0.13798923200240518,0.1390815170504471,0.1375425547412103,0.14016897412168672,0.1392876671895584,0.13933348826569178,0.14004353613180354,0.1341682236395149,0.14102426362326903,0.131098680925212,0.13946078145036475,0.14003023684385263,0.13396873432025128
2.4760000705718994,car (2).jpg,0.10482179132959739,0.14155527401629375,0.13859348906200994,0.1379808724499789,0.13909128476277408,0.13754101247084288,0.14017134340659898,0.13929215989019392,0.13932179830334165,0.14002831459382947,0.13414589424680404,0.14100899738180606,0.13107722325053492,0.13946084850559812,0.14001821160533567,0.13435322902837146
2.4769999980926514,car (2).jpg,0.10482069609411908,0.14154740620224548,0.1385830507973493,0.13799537873213039,0.13907789606784535,0.13753023893001542,0.14015786530469243,0.13927859238130955,0.13932340762894244,0.14003506482065498,0.13414517899098147,0.14101530057374245,0.13105869365438147,0.1394506561101265,0.14001912802685834,0.1341703694069826
2.4769999980926514,car (2).jpg,0.10487458615000082,0.1415598561239071,0.1385971547481006,0.13797472572025368,0.1390839757423372,0.13754331470052178,0.14017096342694324,0.139288874183759,0.13932841441970042,0.1400351989311217,0.13417325278201733,0.1410165746231764,0.13111155553001827,0.13946263664515454,0.14002558768100593,0.13405950475448428
2.4780001640319824,car (2).jpg,0.10478634146289127,0.14154568511792243,0.13858269316943803,0.13799189185999536,0.13908413220454838,0.13752997070908196,0.1401595863890155,0.13928169927378883,0.13931723854747277,0.14002672761997315,0.13413491954027648,0.14100678455910498,0.13104745072692045,0.13945123725548234,0.14001275777968858,0.13439031057242282
2.4780001640319824,car (2).jpg,0.10487016050459867,0.14155366469069297,0.13858917517533006,0.1379817665197571,0.13907465506489933,0.13753529042426232,0.1401616874529943,0.13927912882317647,0.13932861558540052,0.14003868580325673,0.13416420032551293,0.14101990503310025,0.1310923330297867,0.13945537232820657,0.14002507359088345,0.13395547973578928
2.4780001640319824,car (2).jpg,0.10482749102443349,0.14155433524302663,0.1385920585503648,0.13797774320575515,0.13908900488483963,0.13753976077315339,0.14016877295598662,0.13929055056459314,0.13931978664634068,0.14002657115776196,0.1341444637351589,0.14100745511143864,0.13107201529407683,0.13945912742127506,0.14001626700356806,0.13434234372882173
2.4790000915527344,car (2).jpg,0.10482635108546627,0.14154496986209986,0.13858007801533676,0.13799229419139555,0.13907499034106616,0.13752856254918128,0.1401548254674465,0.1392773630353645,0.13932123950973027,0.140032807294465,0.1341411109734906,0.14101326656499702,0.13105525148573535,0.13944873386010334,0.14001678109369053,0.13416529556099124
2.4790000915527344,car (2).jpg,0.10488294570242711,0.1415588055919177,0.1385954113120331,0.13797217762138578,0.13908214289929186,0.13754179478189882,0.14016964467402038,0.13928719780292484,0.13932539693419896,0.14003209203864242,0.13417924304953135,0.14101393711733068,0.13111913277138862,0.13945908271778615,0.14002239138154882,0.13404430556825467
2.4790000915527344,car (2).jpg,0.10479910430897525,0.14154268998416542,0.13857907218683627,0.13798768973203776,0.13908044416671325,0.13752684146485822,0.1401562336273472,0.13928017935516587,0.1393147798555827,0.1400242018728497,0.13413932283393418,0.1410049740678041,0.13105601144504683,0.1394494491159259,0.14001067906745424,0.13438894711601104
2.936000108718872,car (2).jpg,0.1048755472750124,0.1415540446703487,0.13858883989916324,0.13798243707209076,0.1390745209544326,0.13753529042426232,0.1401615309907831,0.1392813192941331,0.13932673803886628,0.14003671884974467,0.13416643549995846,0.14101845216971065,0.1311025924804917,0.1394534053746945,0.1400233972100493,0.13395331161657711
2.936000108718872,car (2).jpg,0.10483209548379128,0.1415499543011134,0.1385868058904178,0.13797233408359696,0.13908384163187046,0.13753468692716203,0.1401642802553511,0.1392853202563906,0.1393145786898826,0.1400208044076925,0.13414363672061405,0.14100231421021392,0.13107950312846936,0.13945304774678322,0.1400109919918766,0.13433391712116208
2.936000108718872,car (2).jpg,0.10482172427436402,0.14154331583301016,0.13857773108216895,0.13798983549950547,0.13907309044278746,0.13752561211891318,0.140153082031379,0.13927532902661907,0.13932059130914107,0.14003236025957588,0.1341394569444009,0.14101306539929692,0.13105885011659266,0.13944804095602523,0.14001608818961242,0.134171419938972
2.936000108718872,car (2).jpg,0.10487579314420141,0.14155809033609512,0.1385945619457438,0.13797088122020737,0.1390810253120691,0.13754094541560952,0.14016839297633088,0.1392878683552585,0.13932481578884312,0.14003227085259806,0.13417052586919379,0.14101393711733068,0.13111202491665183,0.1394582557032413,0.14002172082921516,0.13403091687332594
2.936000108718872,car (2).jpg,0.10478989539025967,0.14154271233590987,0.13857918394555854,0.13798684036574846,0.13908075709113563,0.1375271543892806,0.14015618892385828,0.1392796205615545,0.13931339404742646,0.1400235536722605,0.13413619358971043,0.14100390118407025,0.1310531280700121,0.1394476609763695,0.14000906974185345,0.13438838832239966
2.936000108718872,car (2).jpg,0.10487313328661123,0.1415527482691703,0.1385876105532182,0.13798053717381206,0.13907300103580963,0.1375339046161061,0.14015954168552658,0.13927825710514272,0.13932506165803213,0.14003589183519982,0.13416712840403658,0.1410176251551658,0.13109935147754567,0.13945119255199342,0.1400214973117706,0.1339538257066996
2.937000036239624,car (2).jpg,0.1048365881844268,0.1415495966732021,0.13858698470437344,0.13797054594404054,0.13908281345162551,0.13753383756087273,0.14016287209545042,0.13928429207614565,0.13931243292241488,0.14001921743383616,0.13415333737770765,0.1410011295677578,0.13108430875352725,0.13945081257233768,0.14000886857615336,0.13433552644676286
2.937000036239624,car (2).jpg,0.10483073202737951,0.14154083478937562,0.13857576412865688,0.13798663920004836,0.13906962592239688,0.13752266168864508,0.14014917047609932,0.13927177509925068,0.13931558451838308,0.140027554634518,0.13414763768287155,0.14100895267831715,0.13105811250902563,0.1394424530199114,0.1400107461226876,0.13417977949139828
2.937000036239624,car (2).jpg,0.10489170758625359,0.14155478227791574,0.1385914550532645,0.13796743905156125,0.13907608557654447,0.1375375479504523,0.1401637885169731,0.13928400150346773,0.13932043484692988,0.14002744287579572,0.13418049474722085,0.14101004791379546,0.13111705405915428,0.13945253365666074,0.14001707166636845,0.1340368400856066
2.937000036239624,car (2).jpg,0.10481209067250379,0.14153915840854148,0.13857493711411203,0.1379828170517465,0.13907525856199962,0.13752248287468943,0.14015066804297782,0.13927430084637413,0.13930881193981312,0.14001839041929132,0.1341367076798329,0.14099958729739037,0.13104921651473242,0.13944126837745527,0.14000435352377338,0.13439493738352506
2.937000036239624,car (2).jpg,0.10489056764728637,0.14154872495516835,0.13858445895725,0.13797781026098851,0.13906853068691857,0.13752997070908196,0.14015527250233561,0.13927409968067403,0.13932273707660878,0.14003274023923162,0.1341889213548805,0.14101545703595364,0.13111855162603278,0.13944759392113612,0.14001953035825854,0.13397275763425323
2.937000036239624,car (2).jpg,0.10486403612661792,0.1415487473069128,0.1385867611869289,0.13797054594404054,0.13908165116091384,0.13753336817423917,0.1401614862872942,0.13928418031742337,0.13931265643985943,0.14001883745418042,0.13417095055233844,0.14100146484392462,0.13110270423921397,0.13945036553744858,0.1400096955906982,0.13434218726661054
2.937000036239624,car (2).jpg,0.10486045984750507,0.14154058892018662,0.1385756076664457,0.1379878685459934,0.13906953651541906,0.1375223487642227,0.1401490810691215,0.13927278092775117,0.13931538335268298,0.14002661586125087,0.1341740127413288,0.14100861740215032,0.13108795208787347,0.13944167070885546,0.14001143902676572,0.1342076297649896
2.937000036239624,car (2).jpg,0.1049261069209703,0.14155440229826,0.13859065039046412,0.13796779667947254,0.13907559383816645,0.13753622919752945,0.14016264857800587,0.13928377798602318,0.13932039014344097,0.1400269511374177,0.13420269002946497,0.1410098690998398,0.1311428479722557,0.13945208662177164,0.14001727283206855,0.13405022878053532
2.938000202178955,car (2).jpg,0.10484508184731982,0.14153953838819722,0.1385752500385344,0.1379830629209355,0.1390760185213111,0.1375225052264339,0.14015086920867792,0.13927622309639728,0.1393096166026135,0.14001839041929132,0.13415867944463247,0.14100010138751284,0.13107664210517908,0.13944227420595576,0.14000531464878496,0.1344166185756467
2.938000202178955,car (2).jpg,0.10493019729020563,0.1415499543011134,0.13858358723921624,0.13797789966796634,0.13906853068691857,0.13752921074977048,0.1401545348947686,0.13927544078534135,0.13932039014344097,0.14002967805024125,0.1341853227240232,0.14101266306789673,0.13111897630917743,0.13944406234551218,0.14001682579717944,0.13398100542795724
2.938000202178955,car (2).jpg,0.10489161817927577,0.1415480991063236,0.138584213088061,0.13796719318237224,0.13907934893123494,0.13752992600559305,0.14015904994714856,0.1392800675964436,0.13931013069273598,0.14001532823030094,0.1341772760960193,0.14099838030318979,0.1311152435678534,0.13944589518855752,0.14000663340170783,0.1343472611126019
2.938000202178955,car (2).jpg,0.10488151519078197,0.14153770554515188,0.1385718525733772,0.1379832193831467,0.13906613905026186,0.13751772195312045,0.14014510245860845,0.13926842233758238,0.1393121199979925,0.1400229054716713,0.13417135288373863,0.1410054211026932,0.131090679000697,0.1394374462291534,0.14000806391335296,0.13421460350925965
2.938000202178955,car (2).jpg,0.1049471175607583,0.14155261415870357,0.13858803523636284,0.13796462273175988,0.13907295633232072,0.13753287643586115,0.1401598769616934,0.13928163221855547,0.13931714914049495,0.1400229501751602,0.13420166184922003,0.14100656104166043,0.13114702774846884,0.1394475492176472,0.14001427769831154,0.13404276329788725
2.938000202178955,car (2).jpg,0.10486437140278475,0.14153687853060704,0.13857174081465493,0.13797863727553336,0.13907248694568716,0.13751778900835382,0.14014711411560943,0.1392718645062285,0.13930604032350066,0.14001362949772234,0.13415997584581088,0.1409961674804887,0.13108169359942598,0.1394376473948535,0.14000162661094984,0.13441333286921178
2.938000202178955,car (2).jpg,0.10494499414503504,0.14154698151910083,0.13858014507057012,0.13797445749932022,0.13906553555316156,0.1375248521596017,0.1401513832988004,0.1392718198027396,0.13931853494865118,0.14002704054439552,0.13419133534328168,0.14101071846612911,0.13112845344882648,0.139441648357111,0.1400149035471563,0.13398259240181357
2.939000129699707,car (2).jpg,0.10491723327842155,0.1415474509057344,0.1385832519630494,0.13796647792654967,0.139078074881801,0.13752892017709256,0.14015844645004827,0.139280872259244,0.13930930367819114,0.14001407653261144,0.13417794664835295,0.14099759799213385,0.131119445695811,0.13944511287750158,0.14000580638716298,0.13434652350503487
2.939000129699707,car (2).jpg,0.10490129648462491,0.1415377502486408,0.13857147259372146,0.13798429226688055,0.1390659155328173,0.13751736432520917,0.14014409663010796,0.13926795295094882,0.13931098005902529,0.1400208938146703,0.13417405744481772,0.1410039235358147,0.1310885332332293,0.13943523340645234,0.14000607460809644,0.13422394653844197
2.939000129699707,car (2).jpg,0.10496522247376709,0.14155263651044803,0.13858754349798483,0.13796574031898265,0.1390722187247537,0.13753191531084957,0.140158580560515,0.13927932998887657,0.13931824437597326,0.14002330780307148,0.13421131780282472,0.14100758922190537,0.13114937468163665,0.13944743745892493,0.14001447886401164,0.13404984880087958
2.939000129699707,car (2).jpg,0.10487986116169228,0.14153790671085198,0.13857288075362215,0.13798098420870117,0.13907353747767656,0.1375187054298765,0.14014798583364318,0.1392729597417068,0.13930507919848908,0.14001237780003284,0.13417112936629408,0.1409954745764106,0.13108649922448387,0.13943599336576382,0.14000026315453806,0.13443239890723216
2.939000129699707,car (2).jpg,0.10495518654050666,0.14154655683595618,0.1385800556635923,0.13797678208074357,0.1390651108700169,0.13752447217994596,0.140150578636,0.13927208802367305,0.1393184678934178,0.1400265488060175,0.13419705738986223,0.14101069611438466,0.1311272464546259,0.13944073193558834,0.1400140988843559,0.13399685281477605
2.939000129699707,car (2).jpg,0.10492338000814676,0.14154561806268906,0.138581709692682,0.13796585207770493,0.1390764208527113,0.1375271990927695,0.14015636773781392,0.13928004524469914,0.13930673322757878,0.14001065671570978,0.13418158998269916,0.14099493813454367,0.13111707641089873,0.13944151424664428,0.14000256538421696,0.13435052446729237
2.939000129699707,car (2).jpg,0.10489892719971265,0.14153598446082882,0.13856937152974266,0.13798348760408016,0.13906513322176137,0.13751524090948591,0.14014280022892955,0.13926699182593724,0.13930948249214678,0.14001843512278023,0.13417177756688328,0.141001777768347,0.13109219891931997,0.1394325959006066,0.14000435352377338,0.13423159083504568
2.940000057220459,car (2).jpg,0.104962517912688,0.14154997665285785,0.13858472717818346,0.1379638180689595,0.13907087762008638,0.1375297471916374,0.14015694888316976,0.1392763125033751,0.13931424341371576,0.14001836806754686,0.13421172013422492,0.14100296241080312,0.1311598576497862,0.13944252007514477,0.14001020968082067,0.13404660779793356
2.940000057220459,car (2).jpg,0.10487362502498924,0.1415310447253042,0.13856628698900783,0.13797515040339833,0.1390683742247074,0.13751327395597385,0.14014250965625163,0.1392683105788601,0.13930154762286515,0.14000781804416396,0.13417095055233844,0.1409910712827529,0.13109581990192173,0.13943243943839542,0.13999641865449175,0.13443814330555717
2.940000057220459,car (2).jpg,0.10495181142709391,0.1415426452806765,0.13857594294261252,0.1379741669266423,0.13906231690196,0.13752161115665568,0.14014709176386497,0.13926824352362674,0.13931504807651615,0.14002272665771565,0.13419810792185163,0.14100705278003844,0.13113527073088535,0.13943684273205312,0.14001076847443206,0.13400264191658998
2.940000057220459,car (2).jpg,0.10493021964195008,0.14154532749001114,0.1385806591606926,0.13796603089166057,0.13907624203875565,0.1375271990927695,0.14015612186862492,0.139278368863865,0.1393074261316569,0.14001101434362107,0.1341838251571447,0.14099538516943277,0.13112391604470205,0.1394415589501332,0.14000303477085052,0.13435059152252574
2.940000057220459,car (2).jpg,0.10490847139459507,0.14153486687360606,0.13856778455588634,0.137983822880247,0.13906370271011623,0.13751457035715225,0.14014166028996233,0.13926549425905874,0.13930684498630105,0.14001573056170113,0.13417459388668465,0.14099956494564592,0.13109492583214352,0.13943007015348316,0.14000160425920538,0.13424459955031867
2.940999984741211,car (2).jpg,0.10497469961341614,0.14154731679526766,0.1385815532304708,0.13796319222011474,0.13906687665782888,0.1375271543892806,0.1401537749354571,0.13927434554986304,0.1393114717974033,0.14001615524484579,0.1342051263696106,0.1410011295677578,0.1311499558269925,0.1394395472931322,0.14000768393369722,0.134045892542111
2.940999984741211,car (2).jpg,0.10489269106300962,0.14153142470495994,0.13856559408492972,0.1379762232871322,0.1390669660648067,0.13751267045887355,0.14014150382775115,0.13926694712244833,0.13929908893097506,0.1400056499249518,0.13416764249415905,0.14098948430889657,0.13108826501229584,0.13942931019417168,0.13999391525911276,0.13443776332590143
