Timestamp,Filename,1/Fp1,2/Fp2,3/Cz,4/Pz,5/P7,6/P8,7/O1,8/O2,9/CP5,10/CP6,11/CP1,12/CP2,13/PO3,14/PO4,15/P3,16/P4
0.30699992179870605,black.png,0.10167783965800281,0.14060512371124312,0.13808717734660833,0.13659455020362737,0.1381093949805969,0.13656944919460406,0.1393030675414881,0.13833908150661964,0.13843445640021043,0.1393324824371913,0.13348631661967236,0.14051893538462346,0.1305847696166956,0.13864308758295626,0.13926082274446758,0.13687356702966297
0.30699992179870605,black.png,0.10170273950132602,0.14060329086819778,0.13808141059653886,0.13659767944785112,0.1381059975154397,0.13656547058409102,0.13929555735535112,0.13833478997168422,0.13843284707460965,0.1393367739721267,0.1334735984770773,0.1405198071026572,0.13054344124119774,0.1386447639637904,0.13925863227351096,0.13710472877081975
0.30699992179870605,black.png,0.10171554705089891,0.1406073812374331,0.13808742321579734,0.13660317797698712,0.1381063998468399,0.136570477374849,0.13930101118099822,0.138338656823475,0.1384387702868903,0.13933686337910453,0.13348267328532615,0.14052425509980382,0.13058754123300806,0.13864630623415783,0.13926569542475883,0.13687421523025217
0.30699992179870605,black.png,0.10166378041074042,0.14060617424323252,0.138087847898942,0.1365961818809726,0.13811366416378787,0.1365708350027603,0.13930320165195484,0.13834057907349814,0.13843854676944575,0.13933997027158382,0.13348877531156245,0.14052389747189253,0.13056550241297513,0.13865035189990424,0.13926444372706934,0.13698934906594146
0.3080000877380371,black.png,0.10173219910051812,0.14061341620843604,0.13808970309373178,0.13661079992184638,0.13811118312015333,0.1365751265376957,0.1393035145763772,0.13834216604735447,0.13844098310959138,0.1393434347919744,0.13346105914843787,0.14052872544869488,0.1305530077878246,0.13865104480398235,0.13926752826780417,0.1370322867670401
0.3080000877380371,black.png,0.10168206413770486,0.14061080105433477,0.1380923405995775,0.13659846175890705,0.1381158993382334,0.13657517124118462,0.13930684498630105,0.13834259073049912,0.13843966435666852,0.13933769039364938,0.13348278504404842,0.140524411562015,0.13058713890160786,0.13864883198128128,0.13926607540441457,0.13686797909354914
0.3080000877380371,black.png,0.10171060731537429,0.14061051048165685,0.13808755732626407,0.13660295445954257,0.13811366416378787,0.1365734278051171,0.13930250874787672,0.13834194252990992,0.1384402678537688,0.13934475354489725,0.13346537303511774,0.1405281219515946,0.13054256952316398,0.1386538164202948,0.13926605305267012,0.13709994549750631
0.3080000877380371,black.png,0.1017357083243976,0.1406170818945267,0.13809533573333452,0.13661095638405757,0.13811542995159984,0.13657997686624251,0.13930854371887966,0.13834784339044612,0.13844654869396075,0.13934504411757517,0.13346633416012932,0.14053245819001892,0.13057813114859237,0.13865488930402867,0.139273116203918,0.13686321817198016
0.3080000877380371,black.png,0.10169310589946579,0.14061455614740326,0.13809506751240105,0.13660326738396494,0.13812191195749188,0.13657901574123094,0.1393108235968141,0.13834817866661295,0.13844634752826065,0.13934754751295417,0.13348408144522683,0.140531921748152,0.13056865400894332,0.13865868910058607,0.13927204332018414,0.1369808777547929
0.3080000877380371,black.png,0.10176787248466879,0.1406221333887736,0.13809788383220242,0.13661877949461693,0.13811960972781298,0.13658341903488863,0.1393117176665923,0.1383511067451366,0.138450929635874,0.13935331426302364,0.1334600980234263,0.14053894019591096,0.13055419243028074,0.13866128190294288,0.13927722892489777,0.13703282320890703
0.3080000877380371,black.png,0.10171894451605612,0.14062311686552964,0.13810496933519475,0.13661122460499103,0.13812787987326144,0.13658791173552415,0.13931958548064058,0.1383568511434616,0.13845356714171972,0.1393514814199783,0.13348832827667334,0.14053864962323304,0.13058783180568598,0.1386626677110991,0.1392799111342324,0.1368735446779185
0.30900001525878906,black.png,0.10174864998443722,0.1406257320196309,0.1381032482508717,0.13661833245972782,0.13812832690815055,0.1365882917151799,0.13931663505037248,0.1383572534748618,0.13845363419695308,0.13935825399854826,0.13346847992759703,0.14054215884711252,0.13053559577889393,0.13866539462392266,0.13927932998887657,0.13709867144807236
0.30900001525878906,black.png,0.10176903477538046,0.14062982238886623,0.13810876913175216,0.1366241886167751,0.13812758930058353,0.13659220327045957,0.13932106069577463,0.13836002509117426,0.13845790338014405,0.1393563317485251,0.13348092984925863,0.14054475164946933,0.1305872730120746,0.1386634276704106,0.13928460500056802,0.13687524341049712
0.30900001525878906,black.png,0.10172191729806868,0.14062631316498675,0.13810753978580712,0.13661547143643754,0.138133356050653,0.13658992339252513,0.1393217312481083,0.1383593992423295,0.13845884215341117,0.1393598856758935,0.13349726897445546,0.14054524338784735,0.13057138092176687,0.13866733922569027,0.13928442618661238,0.1369907795775866
0.30900001525878906,black.png,0.10179029128435746,0.1406353432697467,0.1381114960445757,0.1366325928726903,0.13813277490529716,0.13659620423271707,0.13932356409115362,0.1383646071987876,0.13846241843252402,0.13936466894920693,0.1334728385177658,0.14055101013791682,0.13055868513091626,0.1386680321297684,0.1392887624250367,0.13704960936899296
0.30900001525878906,black.png,0.10174073746690004,0.14063547738021343,0.13811750866383418,0.13662371923014155,0.13814012862922295,0.1365993334769408,0.1393307837046127,0.13836829523662272,0.1384640277581248,0.1393614279462609,0.1335035051111585,0.14054955727452723,0.13059920884361373,0.13866778626057938,0.1392906176198265,0.13688451938444607
0.309999942779541,black.png,0.1017673136910574,0.14063592441510253,0.1381139547364658,0.13662796606158806,0.13813874282106672,0.13659761239261775,0.13932673803886628,0.13836684237323313,0.13846472066220292,0.13936826758006424,0.13349087637554125,0.14055315590538453,0.13055267251165778,0.138672480126915,0.13929030469540413,0.13711282010231257
0.309999942779541,black.png,0.1017904700983131,0.14064216055180556,0.13812153197783614,0.13663592328261415,0.1381401509809674,0.13660378147408742,0.1393320801057911,0.1383715138878243,0.13847126972332832,0.1393689381323979,0.13349818539597813,0.14055800623393133,0.13059498436391168,0.13867431296996033,0.13929765841932992,0.13689158253569395
0.309999942779541,black.png,0.10173961987967728,0.14064021595003795,0.13812213547493643,0.13662821193077707,0.13814687885604846,0.13660362501187623,0.1393350305360592,0.13837303380644725,0.13847064387448357,0.13937099449288778,0.1335096518408837,0.14055708981240866,0.13057618654682476,0.13867788924907318,0.13929602674198469,0.13699297004854322
0.309999942779541,black.png,0.10181051961308951,0.14064712263907464,0.1381240577249596,0.1366428523233953,0.1381439060740359,0.13660740245668918,0.1393350752395481,0.13837504546344823,0.13847527068558582,0.13937682829819062,0.133483500299871,0.14056390709446753,0.1305666647036868,0.1386820243217974,0.13930143586414287,0.13706632847384553
0.309999942779541,black.png,0.10176315626658872,0.1406487990199088,0.1381312996901631,0.13663587857912524,0.13815217621948436,0.13661267746838063,0.13934379241988568,0.138381907448996,0.13847585183094166,0.13937311790861104,0.1335041980152366,0.14056158251304418,0.13059936530582492,0.13868220313575305,0.1393022181751988,0.13689636580900738
0.309999942779541,black.png,0.10178421160986562,0.1406465861972077,0.13812484003601552,0.1366378455326373,0.13814882345781607,0.13660845298867857,0.13933695278608235,0.13837728063789376,0.13847381782219623,0.1393771859261019,0.13348528843942742,0.14056205189967774,0.13054822451451117,0.13868332072297582,0.13929937950365298,0.13711682106457007
0.309999942779541,black.png,0.10181179366252346,0.14065255411297728,0.13813136674539647,0.13664575805017448,0.13814902462351616,0.13661386211083676,0.13934191487335143,0.1383800075507173,0.13848045629029945,0.13937832586506912,0.1334854449016386,0.14056741631834702,0.1305843672852954,0.13868515356602115,0.1393067779310677,0.13689093433510474
0.31100010871887207,black.png,0.10175703188860796,0.14064955897922027,0.13813116557969637,0.13663686205588127,0.13815488078056345,0.13661290098582518,0.13934390417860795,0.1383827568152853,0.13847895872342095,0.13937917523135843,0.1335010464192684,0.14056518114390149,0.1305685198984766,0.13868752285093341,0.13930438629441097,0.13698438697867238
0.31100010871887207,black.png,0.10182236603765082,0.14065615274383458,0.13813257373959706,0.13665127893105494,0.13815237738518446,0.13661665607889367,0.1393432336262743,0.13838447789960837,0.13848240089206706,0.1393839361529274,0.1334793428754023,0.14057099259745987,0.13056138969199535,0.13869013800503469,0.1393085213671352,0.13706217104937685
0.31100010871887207,black.png,0.10176952651375848,0.1406555939502232,0.13813798286175524,0.13664253939897292,0.1381590158532877,0.13661976297137296,0.13935016266705544,0.13838914941419952,0.13848331731358973,0.13938013635637,0.13350341570418067,0.14056900329220334,0.1305926150789994,0.13869020506026805,0.13930950484389124,0.13689194016360523
0.31100010871887207,black.png,0.10179625920012703,0.14065561630196766,0.13813369132681982,0.13664578040191894,0.13815792061780938,0.13661770661088307,0.13934531233850864,0.13838673542579835,0.13848409962464567,0.13938742302506243,0.13349054109937442,0.140572423109105,0.1305517113866462,0.1386948765748592,0.13930959425086906,0.1371190115355267
0.31100010871887207,black.png,0.10182388595627379,0.14066361822648266,0.13814247556239076,0.13665684451542431,0.13816078164109966,0.13662550736969797,0.1393546330159465,0.1383932621351793,0.13849190038346057,0.13939006053090816,0.133494743227332,0.14057910628069714,0.1305919221749213,0.13869787170861622,0.1393184231899289,0.13690564178295633
0.31100010871887207,black.png,0.10177683553419536,0.14066140540378158,0.13814316846646887,0.13664877553567595,0.1381674648126918,0.13662517209353114,0.1393564882107363,0.13839518438520246,0.1384894863950594,0.13938981466171915,0.13351441276245268,0.14057628996089577,0.1305805227852491,0.13869885518537226,0.13931515983523843,0.1369913830746869
0.31100010871887207,black.png,0.10184769056411869,0.14066668041547303,0.1381432578734467,0.13666135956780429,0.1381630615190341,0.13662658025343183,0.13935411892582403,0.13839487146078008,0.13849310737766116,0.13939477674898823,0.13348738950340622,0.14058216846968752,0.13056192613386228,0.13870095624935105,0.1393194290184294,0.13706943536632482
0.312000036239624,black.png,0.10180184713624085,0.1406677532992069,0.13815014221073893,0.13665438582353423,0.13817030348423762,0.13663040240173369,0.1393614279462609,0.13839902888524877,0.1384947390550064,0.13939162515302003,0.13351387632058576,0.14058089442025357,0.1306020251634151,0.13870131387726234,0.13932135126845255,0.13688919089903723
0.312000036239624,black.png,0.1018184768341156,0.14066770859571798,0.13814627535894816,0.13665776093694698,0.13816972233888178,0.13662906129706637,0.1393576281497035,0.1383985147951263,0.1384949402207065,0.1393984871385678,0.1335005993843793,0.14058375544354385,0.1305586627791718,0.1387057842261534,0.13932108304751908,0.13711617286398087
0.312000036239624,black.png,0.10183186552904433,0.14067331888357626,0.1381527573648402,0.13666703691089593,0.13817057170517108,0.1366350962680693,0.13936297021662833,0.13840385686205112,0.1385008857847316,0.13939920239439038,0.13350643318968214,0.14058856106860174,0.13059941000931383,0.1387072817930319,0.13932803444004468,0.13691485070167192
0.312000036239624,black.png,0.10178065768249722,0.14067039080505261,0.13815253384739565,0.13665773858520253,0.138176606676174,0.13663422455003554,0.1393644901352513,0.13840548853939635,0.13849722009864093,0.13939806245542316,0.13352806967831488,0.14058473892029988,0.130593576204011,0.1387078405866433,0.13932389936732045,0.13699638986544488
0.312999963760376,black.png,0.10185676537236754,0.14067378827020982,0.13815067865260586,0.13666862388475226,0.13816992350458188,0.1366348951023692,0.1393606903386939,0.1384033651236731,0.13850101989519834,0.139403896260726,0.13350218635823563,0.140591176222703,0.13057795233463673,0.13871166273494515,0.13932843677144488,0.13709201062822468
0.312999963760376,black.png,0.10181521347942513,0.1406785044882899,0.13816107221377757,0.13666612048937327,0.13818047352796478,0.13664287467513975,0.139372134431855,0.13841223876622186,0.13850544554060049,0.13940313630141452,0.133523755791635,0.1405924279203925,0.13060819424488476,0.13871405437160186,0.1393329741755693,0.13690246783524368
0.312999963760376,black.png,0.1018294291888987,0.14067823626735643,0.13815754063815364,0.1366698979341862,0.13818078645238716,0.1366410418320944,0.1393691840015869,0.1384101600539875,0.1385052890783893,0.13940941714160646,0.13352033597473334,0.1405948866122826,0.13057408548284596,0.13871785416815927,0.13933210245753555,0.13713729526249113
0.312999963760376,black.png,0.10185341261069925,0.14068342187207006,0.13816324033298974,0.13667919625987962,0.13818085350762052,0.13664566864319666,0.1393731402603555,0.13841469745811194,0.13851080995926976,0.13940905951369517,0.13352654975969191,0.1405987758158178,0.13061311162866493,0.13871796592688154,0.1393386738704054,0.1369350119751706
0.312999963760376,black.png,0.10179263821752527,0.14067993499993503,0.13816248037367826,0.13666947325104156,0.1381868214233901,0.13664367933794014,0.13937477193770073,0.13841478686508976,0.13851087701450313,0.13941113822592952,0.13354011726857629,0.14059794880127297,0.13060019232036976,0.1387209387088941,0.13933766804190492,0.1369998767375799
0.312999963760376,black.png,0.10186179451486999,0.14068878629073933,0.13816598959755774,0.13668628176287195,0.13818632968501207,0.13664958019847634,0.1393755318970122,0.13841822903373588,0.13851469916280498,0.1394171955486769,0.13351434570721932,0.14060445315890946,0.13058275795969462,0.1387242914705624,0.13934213839079598,0.13710363353534144
0.31400012969970703,black.png,0.10181769452305967,0.14068921097388398,0.13817184575460503,0.13667941977732417,0.13819200702810372,0.1366527988496779,0.13938366793199394,0.13842218529250447,0.1385164873023614,0.13941395454573088,0.13353962553019827,0.1406033802751756,0.1306277296695387,0.13872451498800695,0.13934423945477478,0.13691610239936142
0.31400012969970703,black.png,0.1018390851425034,0.14068871923550597,0.13816757657141407,0.13668172200700307,0.13819102355134769,0.1366506530822102,0.13937980108020318,0.13842008422852567,0.138514945031994,0.13941914015044451,0.13353057307369387,0.14060454256588728,0.13058564133472936,0.1387278901014197,0.1393420266320737,0.13714377726838317
0.31400012969970703,black.png,0.10186856709343994,0.14069399424719742,0.1381731645075279,0.13669133325711885,0.13819080003390313,0.136655995149135,0.13938360087676058,0.13842439811520554,0.13852127057567484,0.13942057066208965,0.13352243703871214,0.140609683467112,0.1306136704222763,0.13872952177876494,0.1393494250594884,0.1369362189693712
0.31400012969970703,black.png,0.10180790445898824,0.14069272019776347,0.13817455031568412,0.1366831525186482,0.1381986231444625,0.13665684451542431,0.1393863948448175,0.13842670034488444,0.13852051061636336,0.13942168824931242,0.13353658569295235,0.1406081859002335,0.1306028298262155,0.13873160049099928,0.13934774867865427,0.13699019843223076
0.31400012969970703,black.png,0.10187612198306584,0.14069727995363235,0.13817408092905056,0.13669542362635417,0.13819430925778262,0.1366584538410251,0.13938503138840572,0.13842699091756236,0.13852310341872018,0.13942653857785922,0.13351751965493197,0.14061357267064722,0.130596325468579,0.1387340368311449,0.13935130260602266,0.1371100484860001
0.31400012969970703,black.png,0.10183423481395659,0.1406998057007558,0.1381827087024103,0.13669081916699638,0.13820269116195336,0.1366641982393501,0.13939412854839903,0.1384334282199655,0.13852802080250035,0.13942627035692576,0.13354273242267756,0.1406153831619481,0.1306269250067383,0.13873656257826836,0.13935601882410273,0.13691800229764012
0.315000057220459,black.png,0.1018500822007754,0.14070043154960055,0.13817940064423093,0.13669372489377557,0.13820255705148662,0.1366627006724716,0.1393897476064858,0.1384312153972644,0.1385258973867771,0.1394302489674388,0.13352744382947013,0.1406156290311371,0.13057781822417,0.13873817190386914,0.13935282252464562,0.13713993276833686
0.315000057220459,black.png,0.10187214337255279,0.14070494660198052,0.13818389334486644,0.13670297851598007,0.13820155122298614,0.13666661222775128,0.1393927874437317,0.13843289177809856,0.13853258055836923,0.13943118774070593,0.13352364403291272,0.1406208369875952,0.13061510093392145,0.13873906597364735,0.13936044446950488,0.1369453161293645
0.315000057220459,black.png,0.10180689863048775,0.14070268907579053,0.13818498858034475,0.1366943060391314,0.13820964255447896,0.13666681339345138,0.1393976377722785,0.13843619983627795,0.138531194750213,0.13943167947908394,0.13354673338493506,0.14061866886838303,0.13062001831770162,0.1387418375899598,0.1393585892747151,0.13700693988882778
0.31599998474121094,black.png,0.10186787418936183,0.14070771821829298,0.13818454154545565,0.13670682301602638,0.13820523926082126,0.1366691603266192,0.1393964978333113,0.13843758564443417,0.13853363109035863,0.1394365521593752,0.13351984423635532,0.1406237427143744,0.13059858299476898,0.13874463155801672,0.13936151735323873,0.13713012035252098
0.31599998474121094,black.png,0.10182625524118605,0.14070901461947138,0.13819142588274788,0.1367005645275789,0.13821165421147993,0.13667354126853243,0.13940387390898154,0.13844319593229246,0.13853568745084852,0.13943310999072908,0.133542508905233,0.1406227815893628,0.13063146241086274,0.13874407276440534,0.1393634396032619,0.136930563978024
0.31599998474121094,black.png,0.10183539710466827,0.14070798643922644,0.13818702258909019,0.1367012127281681,0.13821089425216845,0.13667123903885353,0.13939871065601236,0.1384404690194689,0.13853416753222556,0.1394382508919538,0.13352527571025796,0.14062380976960775,0.13058213211084987,0.13874581620047285,0.13936107031834963,0.13715233798650955
0.31599998474121094,black.png,0.1018652366835161,0.14071303793347334,0.1381916717519369,0.13671113690270625,0.1382098213684346,0.13667548587030004,0.13940277867350323,0.13844301711833681,0.1385396437096171,0.13943838500242053,0.1335143010037304,0.14062801189756535,0.13060982592223,0.13874570444175058,0.1393676417312195,0.136960314149894
0.31599998474121094,black.png,0.10180660805780983,0.1407099086892496,0.13819180586240362,0.13670114567293473,0.13821623631909327,0.13667418946912163,0.1394042985921262,0.13844368767067047,0.13853901786077236,0.1394392567204543,0.1335387538121645,0.14062635786847566,0.13061011649490792,0.13874840900282967,0.13936614416434098,0.13700334125797048
0.3169999122619629,black.png,0.10186955057019598,0.14071762004108668,0.13819435396127153,0.13671679189405345,0.13821485051093704,0.13667928566685744,0.13940548323458232,0.13844775568816134,0.13854393524455252,0.1394471021827581,0.133512758733363,0.1406343374412462,0.1305879212126638,0.1387548910087217,0.13937182150743263,0.13713517184676788
0.3169999122619629,black.png,0.1018262775929305,0.1407206598783326,0.1382024229410199,0.13671223213818456,0.13822229364184066,0.13668507476867137,0.13941395454573088,0.13845464002545357,0.13854791385506557,0.13944522463622386,0.13353779268715293,0.14063509740055768,0.13062985308526195,0.13875641092734467,0.1393761353941125,0.13693123453035766
0.3169999122619629,black.png,0.10183819107272518,0.1407213080789218,0.13819983013866308,0.13671426614693,0.13822363474650798,0.13668377836749296,0.1394116970195409,0.13845316481031952,0.13854643863993152,0.139449650281626,0.13352757793993686,0.1406357903046358,0.13058729536381905,0.13875857904655683,0.13937372140571133,0.13714809115506305
0.3169999122619629,black.png,0.10187319390454219,0.1407257560760684,0.1382038758044095,0.13672430208019043,0.13822180190346264,0.13668737699835026,0.13941455804283118,0.13845539998476505,0.13855193716906752,0.1394504549444264,0.13351593268107564,0.14064066298492706,0.13061458684379898,0.1387590484331904,0.13937980108020318,0.13696268343480628
0.3169999122619629,black.png,0.10181595108699215,0.1407227609423114,0.13820409932185404,0.13671379676029644,0.1382277251157433,0.13668634881810532,0.13941645794110988,0.1384563834615211,0.1385495008289219,0.13944969498511492,0.13352918726553764,0.1406375337407033,0.13059983469245848,0.13875962957854623,0.1393764930220238,0.1369886338101189
0.31800007820129395,black.png,0.10188340865175827,0.1407280583057473,0.1382035628799871,0.1367262690337025,0.1382235676912746,0.13668909808267332,0.13941422276666435,0.1384574339935105,0.138552205390001,0.1394555511421622,0.1334974030849222,0.1406428981593726,0.13057484544215744,0.1387634517268481,0.13937962226624753,0.1371316626228884
0.7880001068115234,black.png,0.10183758757562489,0.1407287065063365,0.1382096649062234,0.1367203681731663,0.13822911092389953,0.1366930543414419,0.13942153178710123,0.13846094321738997,0.1385532559219904,0.13945099138629333,0.13352458280617985,0.1406408417988827,0.1306187219165232,0.1387615965320583,0.1393809857226593,0.13692169033547524
0.7880001068115234,black.png,0.10184764586062978,0.14072604664874633,0.1382043675427875,0.1367182671091875,0.13822761335702102,0.13668918748965114,0.1394165920515766,0.1384583727667776,0.13855111015452268,0.13945528292122875,0.13352502984106895,0.14064113237156062,0.13058273560795017,0.13876403287220393,0.13937812469936903,0.137149365204497
0.7880001068115234,black.png,0.10188490621863677,0.14073243924766055,0.13821008958936806,0.1367304711616601,0.13822759100527657,0.1366944625013426,0.13942005657196718,0.13846185963891264,0.1385596038174157,0.13945917212476397,0.1335151503700197,0.14064891077863106,0.1306039250616938,0.13876673743328302,0.13938775830122926,0.13696905368197604
0.7890000343322754,black.png,0.10183168671508869,0.14073257335812728,0.13821384468243655,0.136722513940634,0.13823700108969225,0.1366967647310215,0.13942613624645903,0.13846704524362627,0.1385591567825266,0.13945979797360872,0.13354130191103242,0.140647189694308,0.13060589201520587,0.138768749090284,0.13938673012098432,0.13698405170250555
0.7890000343322754,black.png,0.10189527742806403,0.1407384071634301,0.13821353175801418,0.13673482975182888,0.1382340730111686,0.1366982622979,0.13942537628714755,0.13846597235989241,0.13856257659942825,0.13946619057252294,0.13351468098338615,0.14065306820309975,0.13058018750908226,0.13877283945951932,0.1393905969727751,0.1371430620125606
0.7890000343322754,black.png,0.10185254089266549,0.14073878714308585,0.1382195667290171,0.13672904065001495,0.13823890098797095,0.13670219620492413,0.13943351232212928,0.1384712250198394,0.13856376124188438,0.13946196609282088,0.13353967023368718,0.14065128006354333,0.130614832712988,0.13877134189264081,0.13939191572569795,0.1369215115215196
0.7890000343322754,black.png,0.10185526780548904,0.14073813894249665,0.13821614691211545,0.13672830304244793,0.13823963859553798,0.1367006092310678,0.13943094187151692,0.1384683863482936,0.1385638059453733,0.13946824693301282,0.13352619213178063,0.14065286703739965,0.13055962390418338,0.13877467230256466,0.13939095460068637,0.137133115486278
0.7890000343322754,black.png,0.10187875948891156,0.14074522444548898,0.13822153368252918,0.13674229523447695,0.13824055501706065,0.13670720299568212,0.1394365074558863,0.13847346019428494,0.13857147259372146,0.13947124206676983,0.13349536907617676,0.1406587455461914,0.1305662623722866,0.13877710864271028,0.13939976118800176,0.1369587271760377
0.7899999618530273,black.png,0.10181414059569127,0.14074323514023246,0.1382228300837076,0.1367318122663274,0.13824860164506456,0.13670794060324915,0.1394405531216327,0.13847786348794264,0.13857142789023255,0.13947177850863676,0.13352152061718947,0.14065653272349032,0.130575314828791,0.13877903089273344,0.13939866595252345,0.13695995652198273
0.7899999618530273,black.png,0.10187462441618733,0.1407474596199345,0.13822169014474037,0.13674334576646635,0.13824527123514072,0.13670908054221637,0.13943811678148707,0.13847692471467551,0.1385743559687562,0.1394772546860283,0.13348088514576972,0.14066113718284812,0.13053389704631532,0.13878122136369006,0.13940192930721393,0.13711507762850256
0.7899999618530273,black.png,0.10182909391273187,0.14075023123624697,0.13822839566807696,0.1367389201210642,0.13825076976427672,0.1367125674143514,0.13944654338914672,0.1384791822408655,0.13857676995715737,0.13947417014529348,0.1335024545791691,0.14066037722353664,0.13056858695370996,0.1387807519770565,0.1394049467927154,0.13687443874769673
0.7899999618530273,black.png,0.10182746223538663,0.14074920305600203,0.1382249758511753,0.13673751196116352,0.13825119444742137,0.13671158393759536,0.1394435482553897,0.13848036688332163,0.13857563001819015,0.13948022746804087,0.1334974477884111,0.14066178538343732,0.13053087956081386,0.13878533408466984,0.13940320335664788,0.13709303880846962
0.7899999618530273,black.png,0.10183660409886885,0.14075324872174844,0.1382277698192322,0.1367498724758473,0.13824929454914267,0.1367151602167082,0.13944529169145722,0.13848195385717796,0.13858014507057012,0.13948069685467443,0.13348276269230397,0.1406657416422059,0.13055260545642441,0.13878412709046925,0.13940890305148398,0.13693568252750427
0.7899999618530273,black.png,0.10176382681892238,0.14075255581767032,0.13823096611868932,0.1367404176879427,0.13825805643296915,0.13671663543184226,0.13945007496477066,0.13848506074965725,0.13858157558221526,0.13948293202911996,0.13351056826240637,0.14066583104918373,0.13055895335184972,0.1387877033695821,0.13940968536253992,0.13692412667562087
0.7899999618530273,black.png,0.1018144758718581,0.14075702616656138,0.13822953560704418,0.13675264409215976,0.13825465896781194,0.13671804359174294,0.1394466998513579,0.1384846360665126,0.13858242494850456,0.13948653065997726,0.13348113101495873,0.14066896029340747,0.13053572988936066,0.1387893573986718,0.13941080294976269,0.13711273069533475
0.7910001277923584,black.png,0.10175133219377186,0.1407571155735392,0.1382348329704801,0.1367483749089688,0.13825941988938092,0.1367208152080554,0.13945367359562796,0.1384869829996804,0.1385850624543503,0.1394831555465645,0.1334978501198113,0.14066837914805164,0.13058043337827127,0.13878846332889358,0.1394133957521195,0.13687694214307572
0.7910001277923584,black.png,0.10174375495240151,0.14075702616656138,0.1382319719471898,0.13674705615604593,0.13826111862195953,0.1367199211382772,0.13945121490373788,0.13848720651712496,0.1385868058904178,0.1394913586367796,0.13349293273603113,0.14067235775856468,0.13054433531097595,0.13879501239001898,0.13941390984224197,0.1371032535556857
0.7910001277923584,black.png,0.10177265575798222,0.1407656762916656,0.13823925861588224,0.13676355174345395,0.13826232561616011,0.13672749837964754,0.1394556629008845,0.13849266034277205,0.13859268439920955,0.13949307972110267,0.13347831469515736,0.14067825861910088,0.13056657529670898,0.13879626408770848,0.1394205036068563,0.13696207993770598
0.7910001277923584,black.png,0.10170479586181591,0.1407638658003647,0.13824165025253896,0.1367525770369264,0.138269388767408,0.13672763249011427,0.13946069204338693,0.1384962813253738,0.13859317613758756,0.13949424201181435,0.13349992883204564,0.1406774539563005,0.13056753642172056,0.13879878983483193,0.13941998951673382,0.1369299604809237
0.7910001277923584,black.png,0.10176843127828017,0.14076929727426735,0.13824144908683886,0.13676554104871047,0.13826599130225078,0.136730024126771,0.13945812159277457,0.13849641543584054,0.1385925055852539,0.13949750536650482,0.13346262377054974,0.14068011381389067,0.13053112543000286,0.13880037680868826,0.13941983305452263,0.13711813981749293
0.7920000553131104,black.png,0.10171854218465592,0.14076771030041102,0.13824556180781863,0.13675941667072972,0.13826751122087375,0.1367317675628385,0.13946232372073217,0.13849965643878656,0.13859514309109963,0.13949433141879217,0.13348341089289317,0.14067991264819057,0.1305797181224487,0.13880026504996598,0.13942296229874637,0.13687589161108632
0.7920000553131104,black.png,0.10171751400441098,0.1407678667626222,0.13824317017116192,0.13675733795849537,0.13826965698834146,0.1367309181965492,0.13946026736024228,0.1384990305899418,0.1385946066492327,0.1395001205206061,0.13347317379393264,0.1406812984563468,0.13053496993004918,0.1388037072186121,0.13942142002837896,0.13709147418635775
0.7920000553131104,black.png,0.10174105039132242,0.14077399114060296,0.13824837812762,0.13677253714472498,0.1382698358022971,0.13673599204254056,0.13946413421203305,0.13850079637775378,0.13859999341964643,0.13950103694212876,0.1334655965525623,0.14068628289536034,0.13056907869208798,0.13880361781163428,0.139427902034271,0.13695179813525654
0.7920000553131104,black.png,0.10167616327716866,0.14077005723357883,0.13824954041833168,0.13675984135387437,0.1382761836977224,0.1367353214902069,0.13946739756672352,0.1385040820841887,0.138600216937091,0.1395018192531847,0.1335011581779907,0.1406850982529042,0.13058275795969462,0.13880683646283584,0.13942743264763743,0.13692560189075492
0.7920000553131104,black.png,0.10174013396979975,0.14077544400399256,0.13824940630786495,0.13677260419995835,0.1382737920610657,0.13673757901639688,0.1394653635579781,0.13850497615396692,0.13860120041384702,0.13950620019509793,0.1334733973113772,0.14068871923550597,0.13055032557848997,0.13880907163728137,0.1394289972697493,0.13713204260254414
0.7920000553131104,black.png,0.10169324000993252,0.1407762710185374,0.13825570949980134,0.13676884910688986,0.13827799418902328,0.13674088707457627,0.13947206908131468,0.13850788188074611,0.13860587192843818,0.13950488144217507,0.1334938491575538,0.14069037326459566,0.1305937773697111,0.13881034568671533,0.13943416052271848,0.13688101016056659
0.7920000553131104,black.png,0.10169058015234234,0.14077875206217194,0.13825604477596817,0.1367684244237452,0.13828311273850355,0.13674285402808833,0.1394730078545818,0.1385103852761251,0.13860634131507174,0.1395115199102783,0.1334917927970639,0.1406926531425301,0.1305559582180927,0.13881602302980697,0.1394336017291071,0.1371020465614851
0.7929999828338623,black.png,0.10172813108302725,0.14078420588781904,0.13826000103473676,0.13678250602275205,0.13828170457860287,0.136746519714179,0.13947488540111605,0.13851230752614827,0.13861154927152983,0.13951279395971225,0.13347771119805707,0.14069772698852145,0.1305725208607341,0.1388155536431734,0.1394396590518545,0.13695975535628263
0.7929999828338623,black.png,0.10166545679157457,0.14078159073371777,0.13826196798824883,0.1367696314179458,0.13828825363972827,0.13674605032754544,0.13947893106686246,0.13851422977617142,0.1386123092308413,0.13951353156727928,0.13351141762869567,0.1406968552704877,0.13058720595684123,0.13881830290774141,0.13943963670011003,0.1369137107627047
0.7929999828338623,black.png,0.10172766169639369,0.140788720940199,0.13826304087198268,0.13678355655474145,0.13828771719786134,0.13674973836538057,0.13947803699708425,0.13851659906108368,0.13861543847506505,0.1395197230004934,0.13347976755854696,0.14070224204090143,0.13055522061052569,0.1388229073670992,0.13944294475828942,0.13711713398899245
0.7929999828338623,black.png,0.1016821982481716,0.1407899726378885,0.13826974639531928,0.13678100845587354,0.1382923887124525,0.13675443223171618,0.13948639654951053,0.13852207523847523,0.13861865712626661,0.13951670551499193,0.13350232046870236,0.14070228674439034,0.13060741193382883,0.13882315323628822,0.13944634222344662,0.13686346404116917
0.7939999103546143,black.png,0.1016784431551031,0.14079028556231088,0.1382683829389075,0.13677850506049455,0.13829504857004268,0.13675449928694955,0.1394852566105433,0.1385225893285977,0.13861973001000047,0.1395237686662398,0.13349807363725585,0.14070534893338071,0.13056393779086325,0.13882907644856887,0.13944640927868,0.1370731010524155
0.7939999103546143,black.png,0.10172079971084591,0.14079611936761371,0.13827307680524312,0.1367939277641687,0.1382940874450311,0.13675899198758507,0.13948740237801102,0.13852558446235472,0.13862359686179124,0.1395237239627509,0.13348513197721623,0.14070932754389376,0.13058633423880747,0.13882878587589095,0.13945108079327115,0.13694603138518707
0.7939999103546143,black.png,0.10166360159678478,0.14079164901872265,0.13827314386047648,0.1367799802756286,0.1382990942357891,0.13675718149628419,0.13948885524140062,0.1385260985524772,0.1386203111553563,0.13952030414584923,0.13351434570721932,0.1407042536979024,0.1305955208057786,0.1388274671229681,0.13944692336880246,0.13689308010257245
0.7939999103546143,black.png,0.10173047801619506,0.14079480061469085,0.13826990285753046,0.13679017267110022,0.13829437801770902,0.136757025034073,0.13948384845064263,0.13852330458442028,0.138622211053635,0.13952604854417425,0.13348135453240328,0.1407089028607491,0.13056264138968485,0.13883137867824777,0.1394492032467369,0.13710439349465292
0.7939999103546143,black.png,0.10169391056226618,0.14079804161763687,0.13827817300297893,0.1367896362292333,0.1383006365061565,0.1367628811911203,0.13949332559029168,0.13853088182579062,0.13862618966414805,0.1395241262941511,0.13350491327105918,0.1407101098549497,0.13061268694552028,0.13883187041662579,0.1394536512438835,0.13685405395675349
0.7939999103546143,black.png,0.10168885906801928,0.1407975275275144,0.13827580371806666,0.13678610465360935,0.13830300579106877,0.13676158478994188,0.13949124687805733,0.1385299877560124,0.13862569792577004,0.13952996009945393,0.13350553911990393,0.14071162977357266,0.13057781822417,0.13883584902713883,0.13945257836014965,0.1370665519912901
0.7950000762939453,black.png,0.10173369666739662,0.1408025790217613,0.1382789329622904,0.13680094621192768,0.1383012400032568,0.13676536223475483,0.13949332559029168,0.13853186530254666,0.13862905068743833,0.13953004950643175,0.13348658484060583,0.14071511664570768,0.13059214569236585,0.13883430675677141,0.13945693695031844,0.13694200807118512
0.7950000762939453,black.png,0.10169002135873095,0.14080083558569378,0.1382817939855807,0.13678896567689963,0.13830850432020478,0.13676558575219938,0.13949627602055978,0.1385332958141918,0.13863157643456178,0.13953226232913282,0.1335189054630882,0.14071592130850807,0.13060723311987318,0.13883857593996238,0.13945863568289704,0.1368863075240025
0.7960000038146973,black.png,0.10177198520564856,0.14080720583286355,0.13828264335187,0.13680246613055064,0.13830783376787112,0.13676884910688986,0.1394968124624267,0.1385362909479488,0.13863249285608445,0.13953659856755715,0.13349036228541877,0.140719207014943,0.1305763206572915,0.13884143696325266,0.13945959680790862,0.13710253829986313
0.7960000038146973,black.png,0.10174143037097816,0.14080850223404195,0.13828887948857302,0.1367999850869161,0.13831125358477278,0.13677285006914736,0.1395035626892522,0.13854035896543967,0.13863450451308543,0.13953248584657738,0.13351108235252884,0.14071844705563152,0.1306205324078241,0.13884027467254098,0.13946194374107643,0.13684781782005045
0.7960000038146973,black.png,0.10174357613844587,0.14080626705959642,0.13828472206410433,0.13679406187463544,0.13831161121268407,0.13677005610109044,0.13949980759618372,0.13853857082588325,0.13863495154797453,0.13953876668676932,0.13350739431469372,0.14072048106437696,0.13057549364274665,0.13884492383538768,0.13946129554048722,0.13705068225272682
0.7960000038146973,black.png,0.10179114065064676,0.14081379959747786,0.13829022059324034,0.1368106915725102,0.13831183473012862,0.13677620283081565,0.13950298154389637,0.13854301882302986,0.13864018185617707,0.13954059952981465,0.13348752361387295,0.14072597959351296,0.1305868706806744,0.13884510264934333,0.13946712934579006,0.13693758242578297
0.7960000038146973,black.png,0.1017285557661719,0.14081087151895422,0.13829187462233003,0.1367976828572372,0.138317892052876,0.13677568874069318,0.1395061107881201,0.1385438905410636,0.13863957835907678,0.1395397278117809,0.13351421159675259,0.1407235656051118,0.1305937773697111,0.13884615318133273,0.13946549766844482,0.13687133185521744
0.7960000038146973,black.png,0.10179473928150407,0.14081654886204586,0.13829162875314102,0.1368098422062209,0.13831601450634176,0.13677799097037208,0.139505172014853,0.13854523164573093,0.13864272995504498,0.13954650039035085,0.13348848473888453,0.140729466465648,0.13056407190133,0.13885089175115725,0.13946909629930213,0.13709323997416972
0.7969999313354492,black.png,0.10175908824909785,0.14081900755393595,0.1382993401049781,0.13680914930214277,0.13832050720697728,0.13678319892683016,0.1395125704422677,0.13855057371265575,0.13864623917892446,0.13954388523624958,0.13350862366063876,0.14073024877670393,0.1306077248582512,0.1388513164343019,0.13947318666853745,0.13684321336069266
0.7980000972747803,black.png,0.10175432732752887,0.1408191863678916,0.13829802135205524,0.13680599770617458,0.13832397172736785,0.1367828860024078,0.13951230222133423,0.1385503948987001,0.13864579214403536,0.13954965198631905,0.13351217758800715,0.1407316122331157,0.1305768123956695,0.1388555185622595,0.13947224789527032,0.13704737419454743
0.7980000972747803,black.png,0.10179583451698238,0.14082305321968236,0.13830016711952295,0.13681945345633667,0.1383214012767555,0.13678559056348688,0.13951315158762354,0.13855155718941178,0.13865010603071523,0.13955061311133063,0.13349731367794437,0.14073617198898458,0.13060269571574876,0.13885540680353722,0.13947767936917296,0.1369423656990964
0.8010001182556152,black.png,0.10173405429530791,0.14082267324002662,0.1383045480614362,0.1368092834126095,0.1383305431402377,0.1367879374966547,0.1395195218347933,0.1385571451255256,0.13865184946678275,0.13955228949216478,0.13352514159979123,0.1407362613959624,0.1306127316490092,0.1388587148617166,0.1394787075494179,0.13687441639595227
0.8010001182556152,black.png,0.10179375580474803,0.14082754592031788,0.13830305049455768,0.1368206828022817,0.13832761506171407,0.13678934565655537,0.13951585614870263,0.13855591577958057,0.1386520282807384,0.13955700571024485,0.13349872183784506,0.14073950239890842,0.1305725208607341,0.13886108414662887,0.1394793557500071,0.13709661508758247
0.8020000457763672,black.png,0.10176579377243444,0.14082991520523014,0.13831002423882774,0.1368191405319143,0.13833096782338236,0.13679428539208,0.13952278518948377,0.1385617495848834,0.1386560739464848,0.13955510581196615,0.13351747495144306,0.14074102231753138,0.1306177831432561,0.1388620676233849,0.13948378139540926,0.13684281102929247
0.8020000457763672,black.png,0.10175779184791944,0.14083031753663033,0.13830890665160497,0.13681529603186798,0.13833481232342867,0.13679417363335772,0.1395233216313507,0.13856201780581687,0.13865779503080786,0.13956281716380323,0.13351852548343246,0.14074448683792196,0.13058512724460689,0.1388679237804322,0.139484407244254,0.13704145098226678
0.8020000457763672,black.png,0.10180663040955429,0.1408385429785899,0.13831480751214117,0.13683217159893174,0.1383355946344846,0.13680032036308293,0.13952763551803057,0.13856668932040803,0.13866300298726594,0.13956460530335965,0.13349771600934457,0.14074978420135786,0.1306026733640043,0.13886846022229912,0.13949044221525694,0.1369341179053924
0.8020000457763672,black.png,0.10174263736517875,0.1408354807895995,0.13831672976216433,0.13681931934586994,0.13834241191654348,0.13680045447354966,0.13953103298318778,0.13856957269544276,0.1386619301035321,0.13956306303299224,0.1335288519893708,0.14074705728853432,0.13061954893106806,0.13886928723684397,0.13948887759314507,0.1368675991138934
0.8020000457763672,black.png,0.1018028753164858,0.1408388335512678,0.13831418166329643,0.13682861767156335,0.13833863447173053,0.1368003874183163,0.13952790373896404,0.1385682539425199,0.1386619301035321,0.1395672875126943,0.13350171697160207,0.14075014182926915,0.13058738477079687,0.13887158946652287,0.1394893693315231,0.13709033424739053
0.8029999732971191,black.png,0.10178479275522145,0.1408392805861569,0.1383195907854546,0.13682602486920653,0.13834037790779805,0.1368035837177734,0.13953275406751084,0.13857129377976582,0.13866456760937781,0.13956371123358144,0.13351631266073138,0.14075014182926915,0.1306245780735705,0.13887120948686713,0.13949254327923574,0.13683706663096745
0.8029999732971191,black.png,0.10177227577832648,0.1408394370483681,0.1383186520121875,0.13682305208719397,0.13834466944273346,0.13680369547649568,0.13953174823901035,0.1385712490762769,0.13866510405124474,0.1395698356115622,0.1335166032334093,0.1407522205415035,0.1305883682475529,0.13887554572529145,0.13949227505830228,0.137029336336772
0.8029999732971191,black.png,0.10181925914517154,0.1408453826123932,0.13832278708491172,0.1368389888809906,0.1383439988903998,0.13680845639806466,0.139534430448345,0.13857466889317857,0.13867136253969223,0.13957294250404148,0.13349977236983446,0.14075892606484008,0.13060814954139585,0.1388775797340369,0.13949938291303907,0.1369383647368389
0.8040001392364502,black.png,0.1017588647316533,0.14084381799028134,0.13832658688146912,0.13682855061632998,0.1383526043120151,0.13681046805506564,0.1395407783437703,0.13857938511125864,0.13867073669084748,0.13957126612320733,0.1335366527481857,0.14075617680027208,0.13063340701263035,0.13887901024568203,0.1394981088636051,0.13687148831742862
0.8040001392364502,black.png,0.10182124845042806,0.14084647784787152,0.13832327882328974,0.1368372454449231,0.13834822337010186,0.13680957398528742,0.1395365762158127,0.13857703817809083,0.1386714295949256,0.1395760270447763,0.13350942832343915,0.140759462506707,0.1305948279017005,0.13888093249570518,0.13949877941593877,0.13709473754104823
0.8040001392364502,black.png,0.10179710856641633,0.14084942827813962,0.1383302525675598,0.13683666429956726,0.13835164318700352,0.1368140443341785,0.139542678242049,0.13858119560255952,0.1386754305571831,0.1395736801116085,0.13352409106780183,0.1407604683352075,0.13063255764634105,0.1388813795305943,0.1395031156543631,0.13684260986359237
1.2699999809265137,black.png,0.10179355463904793,0.14084895889150606,0.1383285538349812,0.13683273039254312,0.138354906541694,0.13681341848533374,0.13954158300657069,0.13858043564324804,0.13867391063856013,0.1395783292744552,0.13352469456490212,0.1407608706666077,0.13060164518375936,0.13888430760911794,0.13950110399736212,0.13703680181942007
1.2699999809265137,black.png,0.10185318909325469,0.14085561971135374,0.1383328006664277,0.13684947184914015,0.13835396776842687,0.13681884995923638,0.13954571807929492,0.1385857553584284,0.13868101849329692,0.13958271021636845,0.13350578498909293,0.14076869377716705,0.13061838664035638,0.1388877721295085,0.13950935179106613,0.1369556649870473
1.2699999809265137,black.png,0.1018030764821859,0.14085465858634216,0.13833662281472955,0.13683945826762417,0.13836152265805277,0.136821040430193,0.13955090368400855,0.13858966691370808,0.13868206902528632,0.13958311254776865,0.13353437287025127,0.14076797852134448,0.1306248239427595,0.13889029787663196,0.13950955295676623,0.13687294118081822
1.2699999809265137,black.png,0.101873037442331,0.14086078296432292,0.13833671222170738,0.13685148350614113,0.13836027096036327,0.13682361088080536,0.13954869086130747,0.13859033746604174,0.13868336542646473,0.13958874518737138,0.1335052038437371,0.1407723147597688,0.13058304853237254,0.13889300243771105,0.13951098346841137,0.13709598923873773
1.2699999809265137,black.png,0.10183760992736934,0.1408643368916913,0.138344647090989,0.1368524446311527,0.13836467425402096,0.13682852826458552,0.13955705041373376,0.13859572423645547,0.13868776872012242,0.13958572770186992,0.13352556628293588,0.1407732758847804,0.1306334293643748,0.13889414237667827,0.13951540911381352,0.1368553503579319
1.2709999084472656,black.png,0.10180336705486381,0.14086147586840103,0.13834075788745379,0.13684558264560492,0.13836628357962175,0.1368246390610503,0.1395532282654319,0.13859241617827608,0.1386860252840549,0.13958934868447168,0.13353198123359455,0.14077323118129148,0.13060540027682785,0.13889610933019034,0.13951250338703433,0.13704777652594763
1.2780001163482666,black.png,0.10185757003516793,0.1408672426184705,0.1383442000560999,0.13686053596264552,0.13836404840517622,0.13682939998261928,0.1395552846259218,0.13859603716087784,0.1386916802754021,0.13959250028043987,0.1335085566054054,0.14077995905637253,0.13061796195721173,0.13889845626335814,0.13951918655862647,0.1369626163795729
1.2790000438690186,black.png,0.10180064014204027,0.14086737672893723,0.13834936330906908,0.13685161761660786,0.13837269853028042,0.13683273039254312,0.13956219131495848,0.13860140157954712,0.13869214966203566,0.13959191913508404,0.13352746618121458,0.1407783273790273,0.1306243769078704,0.13890024440291457,0.13951878422722627,0.1368823512652339
1.2790000438690186,black.png,0.10186358265442641,0.1408704389179276,0.13834636817531207,0.13686111710800136,0.13836831758836718,0.13683277509603203,0.13955810094572316,0.1385996134399907,0.13869407191205882,0.1395985352514428,0.13350073349484604,0.1407833788732742,0.13059035755280943,0.13890391008900524,0.1395210641051607,0.13711219425346782
1.2799999713897705,black.png,0.10184149913090457,0.14087531159821887,0.138355398280072,0.13686373226210263,0.13837372671052536,0.13683988295076882,0.1395673769196721,0.13860783888195025,0.1386988328336278,0.1395970823880532,0.13352062654741126,0.14078509995759725,0.13064199008250119,0.13890610055996186,0.13952656263429672,0.1368684037766938
1.2799999713897705,black.png,0.10182980916855444,0.14087271879586205,0.13835184435270362,0.1368572949596995,0.13837609599543763,0.13683691016875627,0.13956491822778203,0.13860540254180462,0.13869601651382643,0.13960032339099923,0.13352384519861282,0.14078398237037448,0.1306104294193303,0.13890690522276225,0.1395233663348396,0.13705495143591778
1.2799999713897705,black.png,0.10188533090178142,0.14087828438023142,0.1383544595068049,0.1368720024075511,0.1383741066901811,0.13684073231705812,0.1395662816841938,0.1386083082685838,0.13870104565632888,0.13960336322824515,0.13350401920128097,0.14078986087916623,0.13062147118109121,0.13890849219661858,0.13952978128549828,0.1369783743594139
1.2820000648498535,black.png,0.1018254282266412,0.14087683151684183,0.1383580581376622,0.13686196647429066,0.13838286857400758,0.13684265456708128,0.1395717802133298,0.13861192925118557,0.13870220794704055,0.13960389967011208,0.13352239233522323,0.14078885505066574,0.13062346048634774,0.13891097324025312,0.1395304294860875,0.1368886544571703
1.2820000648498535,black.png,0.10188825898030507,0.14088143597619962,0.13835658292252814,0.1368728070703515,0.13838134865538462,0.13684421918919315,0.13956916505922853,0.138611459864552,0.1387019397261071,0.1396083476672587,0.13350292396580266,0.1407914255012781,0.13058821178534172,0.13891162144084232,0.13953054124480976,0.13711534584943602
1.2839999198913574,black.png,0.1018698858463628,0.14088286648784476,0.13836257319004217,0.1368720024075511,0.13838374029204134,0.13684770606132818,0.13957461888487563,0.13861470086749803,0.13870634301976478,0.13960617954804652,0.133523509922446,0.14079269955071205,0.13063117183818482,0.1389131860629542,0.1395353692216121,0.13686728618947103
1.2839999198913574,black.png,0.10186686836086134,0.1408813018657329,0.1383603603673411,0.1368667050441152,0.13838657896358716,0.13684600732874957,0.13957229430345228,0.13861452205354238,0.1387055383569644,0.13961071695217095,0.13353542340224067,0.1407932806960679,0.1305997676372251,0.13891519771995517,0.13953358108205569,0.13705376679346165
1.2839999198913574,black.png,0.10192033373359843,0.1408893484937368,0.1383657024342659,0.13688434057049043,0.1383876071438321,0.1368519528927747,0.13957645172792096,0.1386186124227777,0.1387125344529789,0.13961476261791736,0.13351629030898693,0.1408006344199937,0.130612329317609,0.13891772346707862,0.13954165006180405,0.13698011779548142
1.2850000858306885,black.png,0.10185879938111297,0.14088666628440216,0.13836851875406728,0.1368726953116292,0.13839460323984662,0.13685255638987498,0.13958152557391232,0.13862149579781244,0.1387112827552894,0.13961208040858272,0.1335469121988907,0.14079705814088084,0.13063530691090905,0.13891879635081247,0.1395395713495697,0.13689294599210572
1.2850000858306885,black.png,0.10191682450971895,0.14088932614199234,0.13836538950984353,0.13688143484371124,0.13839080344328922,0.13685246698289716,0.13957774812909937,0.13861968530651156,0.13871304854310137,0.13961840595226357,0.13352149826544502,0.14080195317291655,0.13059476084646712,0.1389213891531693,0.13954178417227078,0.13711612816049196
1.2850000858306885,black.png,0.10189154468674,0.1408942435257725,0.13837459842855912,0.1368846981984017,0.13839630197242522,0.13685941837542276,0.13958742643444852,0.13862668140252607,0.13871767535420362,0.1396163942952626,0.13353560221619631,0.1408034283880506,0.13064304061449059,0.13892445134215967,0.13954681331477323,0.1368709071720728
1.2850000858306885,black.png,0.10187115989579676,0.1408920530548159,0.13837153623956874,0.13687857382042096,0.13839887242303758,0.1368570937939994,0.13958601827454784,0.1386251614839031,0.13871687069140323,0.13962070818194247,0.1335426653674442,0.14080400953340644,0.13061715729441134,0.13892731236544995,0.1395448240095167,0.13705993587493132
1.2850000858306885,black.png,0.1019195514225425,0.14089889268861922,0.13837571601578189,0.13689448826247314,0.1383977101323259,0.13686221234347967,0.1395885887251602,0.13862934126011625,0.13872232451705033,0.13962363626046612,0.13352344286721263,0.14081060329802075,0.1306258744747489,0.1389283405456949,0.13955121660843092,0.13699594283055577
1.2850000858306885,black.png,0.10185289852057677,0.14089741747348516,0.1383795605158282,0.1368837594251346,0.1384052650219518,0.13686337463419135,0.13959274614962888,0.13863110704792822,0.13872415736009566,0.13962363626046612,0.13355334950129383,0.140809977449176,0.1306460357482476,0.13893140273468527,0.1395521330299536,0.13690430067828901
1.2860000133514404,black.png,0.1019119965329166,0.14090208898807632,0.1383787111495389,0.1368943094485175,0.13840343217890647,0.13686511807025886,0.13959122623100592,0.13863278342876237,0.1387247832089404,0.13962947006576895,0.13353397053885108,0.1408141348736447,0.13061416216065433,0.13893415199925327,0.1395532729689208,0.13713492597757887
1.2860000133514404,black.png,0.10189527742806403,0.14090436886601077,0.13838463436181955,0.13689457766945096,0.13840513091148507,0.13686952136391656,0.13959692592584202,0.13863620324566403,0.13872811361886425,0.13962651963550085,0.13354872269019158,0.14081473837074499,0.13066367127462283,0.13893567191787623,0.13955713982071158,0.13688983909962643
1.2860000133514404,black.png,0.10188197814011313,0.14090351949972146,0.13838293562924095,0.13688981674788198,0.13840870719059792,0.13686932019821646,0.13959605420780827,0.13863783492300927,0.13872692897640812,0.1396309899843919,0.13355482471642788,0.140814984239934,0.13063360817833045,0.13893839883069978,0.13955501640498832,0.13706775898549067
1.2860000133514404,black.png,0.10193653874832853,0.14090912978757975,0.13838512610019757,0.13690456889922248,0.13840584616730764,0.1368724941459291,0.13959607655955272,0.13863888545499867,0.1387327851334554,0.13963458861524922,0.13352952254170447,0.14082186857722623,0.13064076073655614,0.13893931525222245,0.13956192309402501,0.13699545109217776
1.2860000133514404,black.png,0.1018700870120629,0.14090966622944667,0.13839102696073377,0.13689636580900738,0.1384159715075459,0.1368758022041085,0.13960535253350168,0.1386440263562234,0.13873350038927798,0.13963396276640447,0.13356327367583198,0.14082048276907,0.13067098029505972,0.13894242214470173,0.1395624371841475,0.13689918212880875
1.2860000133514404,black.png,0.10193166606803727,0.14091136496202528,0.13838684718452063,0.13690347366374417,0.1384105623853877,0.13687446109944118,0.1395993399142432,0.13864210410620023,0.13873224869158848,0.1396385448740178,0.1335313106812609,0.1408230308679379,0.13061505623043254,0.1389421315720238,0.1395613866521581,0.1371190562390156
1.2860000133514404,black.png,0.10191937260858686,0.14091534357253832,0.13839469264682444,0.13690541826551178,0.13841375868484482,0.13687969140764372,0.13960539723699059,0.13864639564113565,0.13873781427595785,0.1396372931763283,0.13354619694306813,0.1408253778011057,0.13065591521929684,0.13894470202263617,0.13956710869873865,0.13687593631457523
1.2869999408721924,black.png,0.10188962243671684,0.14091377895042645,0.1383924574723789,0.1368994503497422,0.1384174243709355,0.13687799267506512,0.1396033408765007,0.13864652975160238,0.13873696490966855,0.13964136119381917,0.133550264960559,0.14082551191157244,0.13062290169273635,0.13894655721742596,0.13956487352429311,0.13705720896210777
1.2869999408721924,black.png,0.10194018208267475,0.1409201044941073,0.13839547495788038,0.13691502951562756,0.1384162620802238,0.13688199363732262,0.13960716302480256,0.13864988251327068,0.13874257519752684,0.139644199865365,0.1335355128092185,0.14083150217908647,0.13064954497212708,0.13894890415059377,0.13957135553018515,0.1370072304615057
1.2869999408721924,black.png,0.10187308214581992,0.14091896455514008,0.13840019117596045,0.13690539591376732,0.13842520277800593,0.13688413940479033,0.13961360032720568,0.13865370466157254,0.13874472096499454,0.13964478101072084,0.13356830281833443,0.140831479827342,0.13066887923108092,0.1389526368919178,0.13957285309706366,0.13691017918708076
1.2869999408721924,black.png,0.1019330518761935,0.14092289846216421,0.13839869360908194,0.13691478364643855,0.13842265467913803,0.13688534639899091,0.1396108957661266,0.13865390582727263,0.1387448997789502,0.13964994426369004,0.13354823095181356,0.14083476553377694,0.1306350833934645,0.1389546932524077,0.13957330013195277,0.13714748765796275
1.2869999408721924,black.png,0.10191452228004005,0.14092564772673222,0.13840515326322952,0.13691619180633924,0.13842471103962792,0.13689024143102663,0.13961742247550754,0.13865830912093033,0.13874912425865224,0.13964761968226666,0.13356059146649735,0.1408360842866998,0.1306780434463076,0.13895630257800848,0.13957765872212155,0.13690553002423406
1.2869999408721924,black.png,0.10189087413440634,0.1409234572557756,0.13840264986785053,0.1369097098004472,0.1384275720629182,0.13688829682925902,0.13961561198420666,0.13865694566451855,0.13874693378769562,0.13965070422300152,0.13356787813518978,0.14083525727215496,0.13064744390814828,0.13895735310999788,0.13957446242266444,0.13708047712808574
1.2880001068115234,black.png,0.10194789343451183,0.14092897813665606,0.13840479563531824,0.13692443960004325,0.1384248227983502,0.1368914484252272,0.13961596961211795,0.1386587785075639,0.1387510465086754,0.1396534087840806,0.1335438053064114,0.14084077815303542,0.13065030493143856,0.13895750957220906,0.13957991624831154,0.1370299398338723
1.2880001068115234,black.png,0.10188519679131469,0.14092696647965508,0.13840823780396436,0.13691382252142698,0.13843213181878708,0.1368924542537277,0.1396210881615982,0.13866141601340962,0.13875350520056548,0.1396534087840806,0.1335779140684502,0.14084039817337968,0.13067878105387462,0.13896115290655528,0.13958181614659024,0.13692274086746464
1.2880001068115234,black.png,0.10194319956817621,0.14093402963090296,0.13840973537084286,0.1369265183122776,0.13843356233043222,0.13689634345726293,0.1396212446238094,0.13866418762972207,0.1387569473692116,0.13966174598476244,0.13355920565834112,0.14084690253101617,0.13064301826274613,0.13896593617986872,0.13958552653616982,0.13715562369294448
1.2880001068115234,black.png,0.10193383418724944,0.14093843292456065,0.13841778199884677,0.13692960285301242,0.13843704920256725,0.13690217726256576,0.1396288442169242,0.1386704237664251,0.13876182004950285,0.1396598684382282,0.13357833875159486,0.14084900359499497,0.13069831647852856,0.1389691995345592,0.13959077919611682,0.13691887401567387
1.2880001068115234,black.png,0.10191467874225124,0.14093554954952592,0.13841463040287857,0.13692249499827563,0.13843948554271288,0.13689933859101994,0.13962732429830124,0.1386688814960577,0.1387596966337796,0.13966297533070748,0.13357648355680507,0.14084819893219458,0.1306576810071088,0.13896957951421493,0.13958747113793743,0.1370857521397772
1.2880001068115234,black.png,0.101974313196458,0.14094212096239578,0.13841729026046876,0.13693780594322752,0.13843704920256725,0.13690371953293318,0.13962765957446807,0.13866999908328045,0.1387628482297478,0.1396649199324751,0.13354414058257824,0.14085280339155237,0.13065216012622835,0.13896817135431425,0.13959167326589503,0.13704176390668915
1.2890000343322754,black.png,0.10190529100958001,0.14094145041006212,0.13842200647854883,0.13692875348672312,0.13844484996138215,0.1369059547073787,0.13963315810360408,0.13867420121123805,0.1387666033228163,0.13966668572028706,0.13357351077479251,0.14085409979273078,0.13067305900729406,0.1389736475317058,0.13959464604790758,0.1369345649402815
1.2890000343322754,black.png,0.10195558243460445,0.14094404321241893,0.13841930191746973,0.1369374706670607,0.1384423242142587,0.13690588765214534,0.13963081117043627,0.13867379887983786,0.1387647034245376,0.13966994907497754,0.13356032324556388,0.14085537384216473,0.13064695216977026,0.13897326755205006,0.13959312612928462,0.13717524852457624
1.2890000343322754,black.png,0.10193946682685218,0.14094793241595416,0.1384267226966289,0.13694033169035097,0.13844498407184888,0.1369116096987259,0.13963740493505059,0.13867835863570674,0.1387706042850738,0.13966959144706625,0.13356848163229007,0.14085850308638848,0.13068801232433466,0.1389770002933741,0.1395995857834322,0.1369381188676499
1.2899999618530273,black.png,0.10191105775964948,0.14094466906126368,0.1384229229000715,0.13693264269025834,0.1384475768742057,0.13690863691671334,0.1396358403129387,0.13867690577231714,0.13876691624723866,0.1396708654965002,0.13357440484457073,0.14085586558054275,0.1306605420303991,0.1389766426654628,0.13959536130373015,0.13710651691037617
1.2899999618530273,black.png,0.10197243564992375,0.14094947468632157,0.13842395108031644,0.13694659017879846,0.1384438217811372,0.13691102855337006,0.13963552738851634,0.1386786268566402,0.13877107367170735,0.13967350300234593,0.13355138254778176,0.1408613864614232,0.1306641853647453,0.1389774026247743,0.13960068101891052,0.1370722963896151
1.2899999618530273,black.png,0.10190448634677962,0.14094677012524248,0.1384267674001178,0.1369354590100597,0.13845023673179588,0.13691129677430353,0.1396408471036967,0.13868063851364118,0.13877031371239587,0.13967032905463328,0.13357757879228338,0.140857743127077,0.1306833408097435,0.13897773790094112,0.13959920580377647,0.1369564696498477
1.2899999618530273,black.png,0.101953056687481,0.14095208984042285,0.13842649917918434,0.13694594197820925,0.1384501249730736,0.13691406839061598,0.13963981892345176,0.13868189021133068,0.13877426997116446,0.13967956032509332,0.133555517620506,0.14086471687134705,0.1304668418129494,0.13898321407833267,0.13960300560033387,0.1371913194288396
1.2899999618530273,black.png,0.1019381033704404,0.14095343094509016,0.1384313718594756,0.13694739484159885,0.1384501696765625,0.13691737644879537,0.13964536215607667,0.1386844830136875,0.13877328649440843,0.13967200543546743,0.1335709179724357,0.14086055944687836,0.13029464397366572,0.13897881078467497,0.13960278208288932,0.13697260760934443
1.2910001277923584,black.png,0.10189840667228778,0.14094773125025406,0.1384255157024283,0.13693890117870583,0.1384509743393629,0.13691196732663719,0.13964247878104194,0.13868010207177425,0.13877232536939685,0.13967555936283582,0.1335739131061927,0.1408591959904666,0.1302589929412595,0.13898158240098743,0.13960052455669933,0.13714382197187208
1.2910001277923584,black.png,0.10194711112345589,0.14095398973870155,0.13842775087687384,0.1369554191178583,0.13844891797887302,0.13691525303307212,0.13964417751362054,0.1386822254874975,0.13877818152644414,0.13967994030474906,0.13354700160586852,0.14086567799635863,0.130262502165139,0.1389833034853105,0.13960747594922493,0.1371182068727263
1.2910001277923584,black.png,0.10187010936380736,0.14095369916602363,0.13843271296414292,0.1369471713241543,0.13845759045572167,0.13691844933252922,0.13965108420265726,0.1386874781474445,0.13877728745666593,0.1396765651913363,0.133571521469536,0.1408617887928234,0.1302733427611998,0.13898207413936545,0.1396062913067688,0.13699730628696755
1.2910001277923584,black.png,0.10190258644850092,0.14095108401192236,0.13842455457741673,0.1369501217544224,0.13844970028992895,0.13691321902432668,0.139641696469986,0.1386808843828302,0.1387727053490526,0.1396780180547259,0.13354910266984732,0.1408598888945447,0.13022356542629784,0.13898211884285436,0.1396014856817109,0.1372270375164792
1.2910001277923584,black.png,0.10188233576802441,0.14095099460494454,0.13842743795245147,0.1369497641265111,0.13844791215037253,0.13691464953597182,0.13964388694094262,0.13868135376946375,0.13877527579966495,0.13967439707212415,0.133558512754263,0.14086011241198926,0.13026961001987578,0.1389789001916528,0.13960521842303494,0.13698344820540526
1.2910001277923584,black.png,0.10183752052039152,0.14094802182293198,0.13842455457741673,0.1369423209956075,0.13845115315331855,0.13691210143710392,0.13964297051941996,0.13867871626361802,0.1387723030176524,0.1396759169907471,0.13356638056831127,0.1408573854991657,0.13024126800790645,0.1389801965928312,0.13960065866716606,0.1371371164485355
1.2910001277923584,black.png,0.10188162051220184,0.14095229100612294,0.13842468868788346,0.1369558661527474,0.1384471745428055,0.13691409074236044,0.139641696469986,0.1386798338508408,0.1387765945525878,0.13967960502858223,0.13353779268715293,0.14086330871144637,0.13024162563581773,0.1389820964911099,0.13960606778932425,0.13712142552392786
1.2920000553131104,black.png,0.10180455169731994,0.14095056992179988,0.13842819791176295,0.13694605373693153,0.13845441650800902,0.13691570006796122,0.13964596565317697,0.13868396892356502,0.13877520874443158,0.13967589463900265,0.13355849040251855,0.14085975478407797,0.13025865766509268,0.13898048716550912,0.13960441376023455,0.1369966804381228
1.2920000553131104,black.png,0.10184554479665098,0.14095128517762245,0.13842328052798278,0.13695217811491228,0.13845104139459627,0.13691344254177124,0.13964174117347491,0.13868119730725256,0.13877281710777487,0.13967895682799303,0.13353783739064184,0.1408598441910558,0.1302303827083567,0.13898171651145416,0.139601686847411,0.13723495003401637
1.2920000553131104,black.png,0.10182511530221883,0.1409521121921673,0.1384271250280291,0.13695224517014565,0.13845003556609578,0.13691509657086093,0.1396444010310651,0.13868110790027474,0.13877599105548752,0.1396754252523691,0.13355053318149246,0.1408609394265341,0.1302718004908324,0.1389787437294416,0.13960557605094623,0.1369931265107544
1.747999906539917,black.png,0.10177916011561872,0.1409499664246996,0.13842562746115059,0.1369452714258756,0.1384537236039309,0.1369130625621155,0.139643953996176,0.13868059381015227,0.13877386763976426,0.13967806275821482,0.1335620219781425,0.14085953126663342,0.13024732533065383,0.1389814035870318,0.1396019327166,0.13714934285275254
1.749000072479248,black.png,0.10182967505808771,0.14095334153811234,0.13842491220532802,0.13695787780974839,0.13844780039165025,0.13691422485282717,0.13964062358625215,0.13868041499619663,0.13877366647406417,0.13967694517099205,0.1335271532567922,0.14086076061257846,0.1302373341008823,0.13897876608118606,0.13960195506834447,0.1371304556286878
1.749000072479248,black.png,0.10175763538570826,0.1409479100642097,0.13842500161230584,0.13694397502469718,0.1384509743393629,0.1369124590650152,0.13964223291185293,0.1386800797200298,0.13877161011357428,0.13967238541512317,0.13354478878316745,0.14085631261543186,0.1302526897493231,0.13897646385150716,0.13959936226598765,0.13699920618524625
1.749000072479248,black.png,0.10179914257516176,0.1409491617618992,0.13842073242911487,0.1369497641265111,0.13844719689454996,0.1369106038702254,0.13963693554841702,0.1386762799234724,0.13877026900890696,0.13967605110121384,0.13352704149806993,0.14085731844393234,0.1302218890454637,0.13897872137769715,0.13959761882992014,0.1372341900747049
1.749000072479248,black.png,0.10178767613025619,0.14095023464563305,0.1384254709989394,0.1369512169899007,0.13844683926663867,0.13691279434118203,0.13964086945544116,0.1386777774903509,0.13877212420369675,0.13967133488313377,0.13354369354768914,0.1408570949264878,0.13027218047048814,0.13897485452590638,0.13960065866716606,0.13699654632765607
1.749000072479248,black.png,0.10175405910659541,0.14094453495079695,0.13842064302213705,0.13694033169035097,0.13844791215037253,0.1369078546056574,0.13963742728679504,0.13867536350194973,0.13876819029667262,0.13967209484244525,0.13355989856241923,0.14085392097877514,0.1302581435749702,0.13897603916836251,0.13959592009734154,0.1371491640387969
1.749000072479248,black.png,0.10181101135146753,0.14094925116887702,0.13842158179540417,0.13695380979225752,0.13844431351951522,0.13691006742835848,0.1396370026036504,0.1386767269583615,0.13877118543042963,0.13967388298200167,0.13353587043712978,0.1408579442927771,0.13025888118253723,0.13897532391253994,0.13959969754215448,0.1371357082886348
1.750999927520752,black.png,0.1017462136442916,0.14094623368337555,0.13842415224601654,0.13694173985025165,0.13844999086260687,0.1369098662626584,0.13963970716472948,0.13867811276651773,0.13876897260772855,0.13966905500519933,0.13356300545489852,0.14085347394388603,0.13027609202576781,0.13897257464797194,0.1395972835537533,0.13699404293227707
1.750999927520752,black.png,0.1017858209354664,0.140945764296742,0.13841869842036944,0.136946321957865,0.13844565462418254,0.13690666996320128,0.1396349909466494,0.13867440237693815,0.13876832440713935,0.1396737712232794,0.13354903561461395,0.14085550795263146,0.13024560424633078,0.1389757485956846,0.1395963894839751,0.1372287809525467
1.750999927520752,black.png,0.10177775195571803,0.14094846885782109,0.13842453222567228,0.136949562960811,0.1384467722114053,0.13691082738766996,0.13963977421996285,0.13867744221418407,0.1387706489885627,0.13967003848195536,0.13355963034148577,0.1408556867665871,0.13028883252010734,0.13897360282821689,0.13960012222529913,0.1369930818072655
1.750999927520752,black.png,0.1017412068535336,0.14094314914264072,0.1384202183389924,0.13693948232406167,0.13844849329572836,0.13690691583239029,0.13963776256296187,0.13867621286823903,0.1387666480263052,0.13967012788893318,0.13357292962943668,0.14085206578398535,0.13026657018262985,0.13897431808403946,0.13959504837930778,0.1371355071229347
1.750999927520752,black.png,0.10180318824090817,0.14094614427639773,0.1384189666413029,0.13695130639687852,0.13844225715902533,0.13690738521902385,0.13963376160070437,0.13867384358332677,0.13876631275013837,0.13966918911566606,0.1335433582715223,0.14085336218516376,0.1302589929412595,0.13897145706074918,0.13959542835896352,0.137136110620035
1.752000093460083,black.png,0.1017437102489126,0.14094008695365035,0.13841898899304736,0.13693693422519376,0.13844509583057116,0.13690483712015594,0.13963570620247198,0.13867315067924865,0.13876351878208146,0.13966324355164095,0.13356883926020136,0.14084797541475003,0.1302850550752944,0.1389679925403586,0.13959220970776196,0.13700412356902641
1.752000093460083,black.png,0.1017915206303025,0.14094124924436202,0.13841489862381204,0.13694238805084086,0.13844160895843613,0.13690282546315496,0.13963020767333598,0.13867013319374719,0.13876447990709304,0.1396695243918329,0.13355328244606046,0.14085130582467387,0.1302446431213192,0.1389722393718051,0.1395922320595064,0.1372368275805506
1.752000093460083,black.png,0.10179330876985893,0.14094332795659636,0.1384197713041033,0.13694495850145322,0.13844118427529148,0.13690579824516752,0.13963371689721546,0.13867196603679252,0.13876667037804966,0.13966523285689747,0.13356398893165455,0.14085166345258515,0.13029321346202058,0.13896955716247048,0.13959565187640807,0.13700284951959246
1.752000093460083,black.png,0.10175488612114025,0.14093939404957223,0.1384170220395353,0.13693615191413783,0.13844451468521532,0.13690264664919932,0.1396324428477815,0.138670222600725,0.13876235649136978,0.13966483052549727,0.13357523185911557,0.14084737191764973,0.1302676430663637,0.13896915483107028,0.13958966160889405,0.13714040215497042
1.752000093460083,black.png,0.10182947389238761,0.14094328325310745,0.13841668676336846,0.1369488700567329,0.13843928437701278,0.13690456889922248,0.13962953712100232,0.13867145194667005,0.138766245694905,0.13966858561856577,0.13354655457097941,0.14085320572295257,0.130263239772706,0.13897206055784947,0.1395942884199963,0.13714715238179592
1.752000093460083,black.png,0.10177750608652902,0.14094138335482875,0.1384202630424813,0.13693843179207227,0.138445922845116,0.1369055523759785,0.1396338957111711,0.1386738212315823,0.1387628035262589,0.1396617683365069,0.13357353312653697,0.1408470366414829,0.13028746906369557,0.13896763491244732,0.13959086860309464,0.13700691753708333
1.753000020980835,black.png,0.10183188788078879,0.14093832116583838,0.13841230582145522,0.13693995171069523,0.1384392173217794,0.13689958446020895,0.13962555851048927,0.138667227466968,0.1387598977994797,0.13966494228421955,0.13356117261185319,0.14084714840020518,0.1302593952726597,0.13896886425839236,0.1395879852280599,0.13723917451371842
1.753000020980835,black.png,0.10182967505808771,0.14094169627925113,0.1384184749029249,0.13694431030086401,0.13844051372295782,0.1369044124370113,0.13963253225475933,0.13867189898155916,0.1387634517268481,0.13966304238594085,0.1335694204055572,0.14084902594673943,0.13030733976451633,0.13896868544443672,0.13959290261184007,0.13700414592077087
1.753000020980835,black.png,0.10179004541516845,0.1409354601425481,0.138413669277867,0.13693304502165854,0.1384412289787804,0.1368996515154423,0.13962891127215757,0.13866946264141353,0.1387588919709792,0.13966270710977402,0.1335782716963615,0.1408449355775041,0.13028092000257016,0.13896832781652543,0.1395871805652595,0.13713649059969074
1.753000020980835,black.png,0.10185810647703486,0.14094028811935044,0.13841389279531155,0.13694638901309836,0.13843720566477843,0.13690159611720992,0.13962750311225688,0.13866941793792462,0.1387611942006581,0.13966429408363035,0.13355033201579236,0.14084871302231705,0.13027776840660196,0.1389681490025698,0.13959015334727207,0.13713908340204756
1.753000020980835,black.png,0.10179190060995824,0.14093778472397145,0.13841729026046876,0.1369356154722709,0.13844326298752582,0.1369023113730325,0.13963237579254814,0.13867149665015896,0.13876123890414702,0.13966078485975086,0.13358269734176365,0.14084607551647133,0.13030807737208336,0.13896747845023613,0.13959006394029425,0.13699951910966862
1.753999948501587,black.png,0.10183412305523432,0.1409372035786156,0.13841212700749958,0.1369396611380173,0.13843885969386813,0.13689902566659756,0.13962582673142274,0.1386670710047568,0.13875933900586832,0.139664472897586,0.1335683698735678,0.14084692488276063,0.13027173343559903,0.13896877485141454,0.1395875381931708,0.13723541942064993
1.753999948501587,black.png,0.10183229021218898,0.14094008695365035,0.1384177149436134,0.1369437738589971,0.13843883734212367,0.1369029595736217,0.13963065470822508,0.13867015554549164,0.13876358583731482,0.13966252829581838,0.13357547772830458,0.14084922711243952,0.1303151628750757,0.13896850663048108,0.13959281320486225,0.13700541997020482
1.753999948501587,black.png,0.10179270527275863,0.14093577306697047,0.13841422807147838,0.1369337602774811,0.13844113957180257,0.13689918212880875,0.13962866540296856,0.13866713805999017,0.13875878021225693,0.13966183539174026,0.13358723474588807,0.14084477911529292,0.1302882960782404,0.13896790313338078,0.13958671117862595,0.13713847990494726
1.753999948501587,black.png,0.10185356907291043,0.1409390587734054,0.13841293167029997,0.13694565140553133,0.13843539517347755,0.13690063499219834,0.13962600554537838,0.1386686803303576,0.13875902608144594,0.13966232713011828,0.1335524107280267,0.14084690253101617,0.130278997752547,0.13896687495313584,0.13958791817282654,0.13715725537028972
1.753999948501587,black.png,0.10178617856337768,0.1409340072791585,0.13841349046391135,0.1369326650420028,0.13843870323165694,0.13689884685264192,0.13962873245820193,0.13866841210942413,0.13875802025294545,0.13965774502250494,0.13357610357714933,0.14084287921701422,0.13030479166564843,0.13896425979903457,0.13958700175130387,0.13700689518533887
1.753999948501587,black.png,0.1018252270609411,0.14093432020358088,0.13840855072838673,0.13693688952170485,0.13843526106301082,0.13689623169854065,0.139622697487199,0.13866465701635564,0.13875596389245556,0.1396615671708068,0.13355435532979432,0.1408434827141145,0.13025926116219297,0.13896580206940198,0.13958456541115824,0.13723457005436063
1.753999948501587,black.png,0.10182985387204335,0.14093785177920481,0.1384132669464668,0.1369404210973288,0.13843523871126637,0.1368995621084645,0.13962658669073422,0.13866689219080117,0.1387597413372685,0.13965910847891672,0.1335625137165205,0.14084527085367093,0.13030541751449318,0.1389648409443904,0.13958941573970504,0.13699650162416716
1.755000114440918,black.png,0.1017750697463834,0.1409312580145905,0.1384102718127098,0.13692944639080123,0.13843818914153447,0.13689594112586273,0.13962598319363392,0.13866669102510107,0.13875520393314408,0.1396586167405387,0.13357675177773853,0.14084077815303542,0.13028241756944867,0.13896441626124575,0.13958385015533567,0.13712059850938302
1.755000114440918,black.png,0.10184190146230476,0.14093382846520286,0.13840765665860852,0.1369397728967396,0.13843126010075332,0.13689547173922917,0.13962095405113148,0.13866378529832188,0.13875477924999943,0.13965859438879424,0.13354378295466696,0.1408423874786362,0.13026632431344085,0.13896186816237785,0.13958431954196923,0.1371420561840601
1.755000114440918,black.png,0.1017778190109514,0.14092924635758952,0.1384092212807204,0.1369269653471667,0.13843499284207736,0.13689446591072868,0.13962408329535522,0.13866400881576643,0.13875346049707657,0.1396537664119919,0.13356854868752344,0.1408381853506786,0.13029287818585375,0.13895945417397668,0.13958302314079082,0.13698930436245255
1.755000114440918,black.png,0.10181072077878961,0.14092926870933398,0.1384045721178737,0.136930563978024,0.1384322212257649,0.13689211897756087,0.13961923296680842,0.13866061135060923,0.13875272288950954,0.13965828146437187,0.1335601667833527,0.14083966056581265,0.13026015523197118,0.13896191286586676,0.1395816820361235,0.13722189661525447
1.755000114440918,black.png,0.10181373826429108,0.14093242030530218,0.13840995888828742,0.13693465434725932,0.13843260120542064,0.13689598582935164,0.13962397153663295,0.1386639194087886,0.13875692501746714,0.13965620275213753,0.13356868279799017,0.14084180633328036,0.13030204240108043,0.13896162229318884,0.13958657706815922,0.13698959493513047
1.75600004196167,black.png,0.1017776178452513,0.14092763703198874,0.1384065167196413,0.13692370199247622,0.1384356186909221,0.13689216368104978,0.13962202693486533,0.13866210891748773,0.13875198528194252,0.1396546157782812,0.13358128918186296,0.14083659837682228,0.13028342339794916,0.13895981180188796,0.1395803856349451,0.13710848386388824
1.75600004196167,black.png,0.10184471778210613,0.14093096744191258,0.1384052650219518,0.13693510138214843,0.13842965077515254,0.13689256601244998,0.13961836124877466,0.13865924789419745,0.13875437691859924,0.13965698506319346,0.13355562937922827,0.1408410910774578,0.13027542147343416,0.13896012472631034,0.1395833360652132,0.1371432631782607
1.75600004196167,black.png,0.10179058185703538,0.14093049805527902,0.13841098706853236,0.13692598187041066,0.13843628924325577,0.13689578466365154,0.1396256479174671,0.13866548403090048,0.138755248636633,0.13965445931607,0.1335857148272651,0.1408398840832572,0.1303080550203389,0.13896153288621102,0.1395843418937137,0.1369922771444651
1.75600004196167,black.png,0.1018418344070714,0.14093157093901287,0.13840700845801931,0.1369305192745351,0.13843324940600985,0.13689388476537284,0.1396205964232202,0.1386634723738995,0.13875392988371013,0.13965919788589454,0.1335718120422139,0.1408413816501357,0.13027001235127597,0.13896387981937883,0.139582687864624,0.13722576346704524
1.75600004196167,black.png,0.10184914342750828,0.14093391787218068,0.1384113223446992,0.1369347214024927,0.13843271296414292,0.1368968575473854,0.13962388212965512,0.13866528286520038,0.13875506982267735,0.13965378876373635,0.13357628239110497,0.14084039817337968,0.13030812207557227,0.13896012472631034,0.13958465481813606,0.13699683690033398
1.75600004196167,black.png,0.10180216006066323,0.14092663120348825,0.13840580146381873,0.13692169033547524,0.13843309294379866,0.1368907108176602,0.1396190988563417,0.138659717280831,0.1387510912121643,0.13965334172884725,0.13359349323433556,0.1408365313215889,0.13029044184570812,0.13896003531933251,0.1395795362686558,0.13711472000059127
1.75600004196167,black.png,0.10187440089874278,0.1409321073808798,0.13840682964406367,0.13693570487924872,0.1384297178303859,0.13689406357932848,0.13961921061506397,0.1386620195105099,0.13875462278778825,0.13965700741493792,0.1335666711409892,0.14084209690595828,0.13028746906369557,0.13896227049377805,0.13958391721056904,0.1371559142656224
1.75600004196167,black.png,0.10181472174104711,0.14092904519188942,0.13840933303944267,0.13692452900702107,0.13843396466183241,0.13689384006188393,0.13962283159766573,0.1386621312692322,0.13875115826739767,0.1396497207462455,0.13359114630116775,0.14083599487972198,0.13031227950004096,0.1389578895518648,0.13958027387622282,0.1369942217462327
1.7569999694824219,black.png,0.10185558072991141,0.14092687707267726,0.13840233694342816,0.13692607127738848,0.13842868965014096,0.13688914619554832,0.13961552257722884,0.13865828676918587,0.13874838665108521,0.13965284999046923,0.1335802162981291,0.1408360395832109,0.13027886364208027,0.13895898478734311,0.13957705522502126,0.13722974207755828
1.7569999694824219,black.png,0.10185853116017951,0.140930006316901,0.13840707551325268,0.13693134628907994,0.13842833202222968,0.13689272247466117,0.13961976940867535,0.13866070075758705,0.13875162765403123,0.1396501677811346,0.13357934458009535,0.1408373806878782,0.13031648162799855,0.13895753192395352,0.1395812797047233,0.1370017319323697
1.758000135421753,black.png,0.10181409589220236,0.14092504422963192,0.13840363334460656,0.13692037158255238,0.13843123774900887,0.13688892267810376,0.13961771304818546,0.13865929259768636,0.1387491466103967,0.13965092774044607,0.13359179450175696,0.14083451966458793,0.13029214057828672,0.13895793425535372,0.139577681073866,0.13710696394526528
1.758000135421753,black.png,0.10187931828252295,0.14092978279945645,0.13840414743472904,0.13693384968445893,0.13842746030419592,0.1368911578525493,0.13961675192317388,0.13865949376338646,0.1387505994737863,0.13965300645268042,0.13356658173401137,0.1408382300541675,0.1302876478776512,0.13895797895884263,0.139579938600056,0.13715394731211034
1.758000135421753,black.png,0.10182044378762767,0.14092533480230984,0.13840564500160754,0.13692148916977515,0.13843020956876392,0.13689033083800445,0.139619948222631,0.13866049959188695,0.1387470902499068,0.13964538450782113,0.1335875700220549,0.14083185980699775,0.130316503979743,0.13895402270007404,0.13957625056222087,0.1369924783101652
1.758000135421753,black.png,0.10185211620952084,0.14092361371798678,0.13839909594048214,0.13692350082677612,0.1384263650687176,0.13688641928272477,0.13961322034754994,0.13865531398717332,0.1387457491452395,0.13965048070555697,0.13357035917882432,0.1408332903186429,0.13027837190370226,0.13895607906056393,0.13957457418138672,0.13722842332463542
1.7590000629425049,black.png,0.10186174981138107,0.14092678766569944,0.13840378980681775,0.13692962520475688,0.13842609684778415,0.13689084492812692,0.1396172436615519,0.13865895732151953,0.13874796196794056,0.13964703853691082,0.13356930864683492,0.1408339385192321,0.13031699571812103,0.13895471560415215,0.13957774812909937,0.13700696224057224
1.7590000629425049,black.png,0.10182359538359587,0.14091994803189611,0.13839900653350432,0.13691654943425052,0.13842714737977355,0.13688514523329082,0.1396142485277949,0.13865520222845104,0.13874396100568306,0.13964601035666588,0.13359060985930082,0.14082984814999677,0.1302973485347448,0.1389536427204183,0.1395725848761302,0.13712053145414965
1.7590000629425049,black.png,0.10189822785833214,0.1409257594854545,0.13840032528642718,0.13692993812917925,0.13842314641751605,0.1368872015937807,0.13961201335334936,0.1386558280772958,0.13874767139526265,0.13964998896717895,0.13357123089685807,0.1408356372518107,0.13028398219156054,0.13895525204601908,0.13957692111455453,0.1371767237397103
1.7590000629425049,black.png,0.10184047095065962,0.14092457484299836,0.13840510855974061,0.1369211091901194,0.13842915903677452,0.13688903443682604,0.1396178471586522,0.13865909143198626,0.13874650910455097,0.13964457984502074,0.13359320266165764,0.14083165864129765,0.1303120559825964,0.1389526368919178,0.1395755353063983,0.13700850451093965
1.7590000629425049,black.png,0.10187375269815357,0.1409237031249646,0.1383995206236268,0.13692397021340968,0.13842594038557296,0.13688599459958012,0.13961210276032718,0.13865488930402867,0.13874431863359435,0.13964882667646727,0.13357751173705001,0.14083230684188686,0.1302751532525007,0.13895462619717433,0.13957309896625267,0.13724194613003088
1.7590000629425049,black.png,0.1018898459541614,0.14092459719474282,0.13840175579807232,0.13692759119601144,0.13842281114134922,0.13688769333215872,0.13961420382430598,0.13865636451916272,0.13874628558710642,0.13964511628688767,0.1335825632312969,0.1408325303593314,0.13032437179379128,0.13895292746459573,0.1395763846726876,0.13702437424950292
1.7599999904632568,black.png,0.10184659532864038,0.1409201491975962,0.13839938651316006,0.13691733174530646,0.13842728149024028,0.13688552521294656,0.13961373443767242,0.13865625276044044,0.13874311163939376,0.13964502687990984,0.1335941190831803,0.14082897643196302,0.13030959729070632,0.13895400034832958,0.13957216019298554,0.1371293603932095
1.7599999904632568,black.png,0.10191313647188383,0.14092421721508708,0.1383982689259373,0.13692987107394589,0.13842281114134922,0.13688711218680288,0.13961165572543807,0.13865491165577312,0.13874425157836098,0.139646703260744,0.13356345248978763,0.14083194921397557,0.13029962841267925,0.13895359801692939,0.1395740377395198,0.13719029124859466
1.7599999904632568,black.png,0.10185535721246686,0.14092126678481898,0.13840119700446094,0.13691882931218496,0.13842681210360672,0.13688713453854734,0.13961630488828478,0.13865725858894093,0.13874427393010544,0.1396420988013862,0.13359613074018128,0.14082906583894084,0.13033950392478752,0.1389525921884289,0.1395740824430087,0.13702806228733805
1.7599999904632568,black.png,0.10188635908202637,0.14092043977027413,0.13839594434451394,0.13692119859709723,0.13842399578380535,0.13688322298326766,0.13960991228937056,0.13865305646098333,0.1387409882236705,0.13964431162408728,0.13358960403080034,0.1408280376586959,0.13029173824688653,0.13895125108376158,0.13956981325981774,0.1372607439471178
1.7599999904632568,black.png,0.10189751260250957,0.14092066328771868,0.13839793364977046,0.13692432784132097,0.13842015128375904,0.13688358061117895,0.1396102922690263,0.13865234120516076,0.13874273165973802,0.13964037771706314,0.13358935816161133,0.1408282835278849,0.13033380422995142,0.13894885944710486,0.13957245076566346,0.13703867936595432
2.2279999256134033,blue.png,0.10185669831713418,0.14091657291848336,0.13839583258579166,0.13691368841096024,0.13842406283903871,0.13688103251231104,0.13961042637949303,0.13865180476329383,0.13873975887772547,0.13964111532463017,0.13359646601634811,0.1408255342633169,0.13030347291272557,0.1389496417581608,0.13956831569293923,0.1371295615589096
2.2279999256134033,blue.png,0.10192603342843454,0.1409207526946965,0.13839433501891316,0.1369254677802882,0.13841854195815825,0.13688223950651163,0.13960635836200216,0.13865032954815978,0.1387413905550707,0.13964411045838718,0.13356895101892363,0.1408295352255744,0.13028791609858467,0.13895031231049446,0.13957077438482932,0.1371971755858869
2.2279999256134033,blue.png,0.10186168275614771,0.1409201491975962,0.13839969943758243,0.13691719763483973,0.13842493455707247,0.13688572637864665,0.13961371208592796,0.1386556716150846,0.1387411893893706,0.13963950599902938,0.13359639896111475,0.1408263836296062,0.13032852921825996,0.1389494852959496,0.13957064027436258,0.13702560359544796
2.2279999256134033,blue.png,0.10188803546286052,0.14091728817430593,0.13839247982412337,0.13691757761449547,0.1384202630424813,0.1368806972361442,0.1396058442718797,0.13864950253361494,0.1387375907585133,0.13964196469091947,0.13358564777203175,0.1408253330976168,0.13028496566831657,0.13894890415059377,0.13956637109117162,0.13726092276107343
2.2290000915527344,blue.png,0.10189851843101005,0.1409199033284072,0.13839654784161423,0.1369236125854984,0.13841849725466934,0.13688337944547885,0.13960825826028087,0.13865153654236037,0.13874105527890387,0.1396398412751962,0.133585267792376,0.14082741180985114,0.1303224048402792,0.13894847946744912,0.13957104260576278,0.13704268032821182
2.2290000915527344,blue.png,0.10185041747694223,0.14091496359288258,0.13839393268751296,0.13691216849233728,0.13842189471982655,0.13687991492508828,0.13960769946666948,0.13865044130688206,0.13873709902013528,0.13963838841180662,0.13360428912690747,0.14082287440572672,0.13031813565708825,0.13894827830174902,0.13956621462896043,0.1371365576549241
2.2290000915527344,blue.png,0.10191315882362828,0.1409161482353387,0.13839022229793338,0.13692182444594198,0.13841463040287857,0.13687852911693205,0.13960343028347852,0.1386477143940585,0.13873560145325678,0.13963762845249514,0.13358084214697385,0.1408233884958492,0.1303153640407758,0.1389456407959033,0.13956554407662677,0.13721559342331807
2.2290000915527344,blue.png,0.1018557371921226,0.14091317545332616,0.13839290450726802,0.13691111796034788,0.13841838549594707,0.1368783055994875,0.13960761005969166,0.13864793791150307,0.13873640611605717,0.13963367219372655,0.13360328329840698,0.14082122037663702,0.13034372840448957,0.1389449925953141,0.1395662816841938,0.13703045392399477
2.2290000915527344,blue.png,0.10188331924478045,0.14091364483995972,0.1383888588415216,0.13691444837027172,0.13841715615000202,0.1368764504046977,0.13960264797242258,0.13864583684752427,0.1387344391625451,0.13963827665308434,0.1335879723534551,0.14082215914990415,0.13029012892128575,0.13894657956917042,0.13956359947485916,0.13725976047036176
2.2290000915527344,blue.png,0.10190533571306892,0.1409173552295393,0.13839353035611276,0.13692093037616376,0.13841498803078986,0.13687993727683273,0.13960410083581218,0.1386478261527808,0.13873765781374667,0.13963628734782782,0.1335864747865766,0.1408245284348164,0.130313262976797,0.138944791429614,0.13956782395456122,0.13704580957243556
2.2290000915527344,blue.png,0.10185636304096735,0.14091194610738111,0.13839064698107803,0.13690856986147998,0.1384175137779133,0.13687577985236404,0.13960226799276684,0.13864550157135744,0.138733992127656,0.13963481213269377,0.13361036880139932,0.14082021454813654,0.13030566338368219,0.13894371854588014,0.13956283951554768,0.13713318254151136
2.2290000915527344,blue.png,0.10191879146323102,0.1409161482353387,0.13839002113223328,0.13692093037616376,0.1384128199115777,0.13687662921865335,0.13960027868751032,0.13864398165273448,0.1387358473224458,0.13963776256296187,0.13359043104534518,0.14082439432434968,0.13029573920914403,0.1389441879325137,0.13956534291092668,0.13721986260650904
2.2290000915527344,blue.png,0.10185365847988825,0.1409144495027601,0.13839473735031335,0.13691236965803738,0.1384185643099027,0.13687893144833224,0.13960635836200216,0.13864800496673643,0.1387361378951237,0.13963351573151536,0.1336137215630676,0.14082166741152613,0.13033863220675376,0.13894421028425816,0.1395658346493047,0.13703926051131016
2.2290000915527344,blue.png,0.10187261275918635,0.14091199081087002,0.13838805417872121,0.1369130625621155,0.13841574799010134,0.1368753551692194,0.139601440978222,0.13864420517017903,0.13873280748519987,0.13963675673446138,0.13360080225477244,0.14082097450744802,0.13030568573542664,0.13894508200229191,0.1395620795562362,0.137274646732169
2.2300000190734863,blue.png,0.10188580028841498,0.14091386835740427,0.13839082579503367,0.1369188069604405,0.13841337870518908,0.13687801502680957,0.13960356439394525,0.13864550157135744,0.1387355343980234,0.1396341415803601,0.13359510255993634,0.14082244972258207,0.13034200732016651,0.1389442326360026,0.13956576759407133,0.1370649426656893
2.2300000190734863,blue.png,0.10183392188953422,0.14090859334571282,0.1383881659374435,0.13690769814344622,0.1384164632459239,0.1368749528378192,0.13960320676603397,0.13864570273705754,0.1387321369328662,0.13963378395244883,0.13361423565319008,0.14081894049870258,0.13033628527358596,0.13894546198194765,0.139561677224836,0.1371500134050862
2.2300000190734863,blue.png,0.10190766029449227,0.14091297428762606,0.13838758479208765,0.13692048334127466,0.13841150115865483,0.13687671862563117,0.1396012845160108,0.13864646269636902,0.13873329922357788,0.13963633205131673,0.13358788294647728,0.14082251677781543,0.13032356713099089,0.13894611018253686,0.13956364417834807,0.13724259433062008
2.2300000190734863,blue.png,0.10185801707005704,0.1409114096655142,0.13839125047817832,0.1369109614981367,0.13841588210056807,0.13687678568086453,0.13960535253350168,0.13864679797253585,0.13873531088057886,0.13963291223441507,0.13361875070557006,0.14082099685919247,0.1303623697593653,0.13894505965054746,0.13956585700104915,0.1370543479388175
2.2300000190734863,blue.png,0.10188550971573707,0.14091286252890378,0.13838832239965468,0.136914805998183,0.13841612796975708,0.1368753998727083,0.13960195506834447,0.13864585919926872,0.13873180165669938,0.13963532622281624,0.13360880417928744,0.1408194769405695,0.13031227950004096,0.1389437408976246,0.139561185486458,0.1372847944241517
2.2300000190734863,blue.png,0.10190332405606795,0.1409127060666926,0.13838899295198834,0.13691911988486288,0.13841145645516592,0.13687501989305256,0.13960072572239943,0.13864340050737864,0.13873510971487876,0.1396328004756928,0.13360216571118422,0.14082122037663702,0.13033995095967663,0.13894130455747897,0.13956500763475985,0.13707207287217055
2.2300000190734863,blue.png,0.1018492328344861,0.14090859334571282,0.13838727186766528,0.13690856986147998,0.13841547976916788,0.13687262825639585,0.1396003457427437,0.13864183588526677,0.13873157813925482,0.13963170524021448,0.13361110640896634,0.14081726411786843,0.1303143582122753,0.1389407904673565,0.1395600231957463,0.13714308436430506
2.2300000190734863,blue.png,0.10192227833536605,0.14091268371494814,0.13838555078334222,0.13692010336161892,0.13840962361212059,0.1368741034715299,0.13959605420780827,0.13864078535327737,0.13873160049099928,0.13963376160070437,0.1335788751934618,0.1408200357341809,0.13029363814516523,0.13894067870863422,0.13956067139633552,0.13723662641485052
2.2300000190734863,blue.png,0.10186930470100697,0.14090944271200212,0.13838783066127666,0.13690899454462463,0.13841208230401067,0.13687405876804098,0.13959985400436567,0.13864210410620023,0.1387280912671198,0.13962531264130026,0.13360659135658637,0.14081364313526668,0.13033999566316554,0.13893556015915395,0.13955765391083405,0.1370464354212803
2.2300000190734863,blue.png,0.1018940927856079,0.14090416770031067,0.13837868879779444,0.1369055523759785,0.1384062708504523,0.136866548581904,0.13959151680368384,0.13863544328635255,0.13872509613336279,0.13962835247854619,0.13360031051639443,0.14081315139688866,0.13030271295341408,0.1389363871736988,0.1395540776317212,0.13728141931073895
2.2309999465942383,blue.png,0.10190806262589247,0.1409091968428131,0.13838427673390827,0.13691444837027172,0.13840669553359694,0.13687171183487318,0.1395963447804862,0.13863995833873252,0.13873028173807642,0.1396288442169242,0.1335951696151697,0.14081735352484626,0.13033934746257633,0.13893786238883285,0.1395607831550578,0.13707658792455052
2.2309999465942383,blue.png,0.10184771291586314,0.14090544174974462,0.1383833156088967,0.13690383129165545,0.13841199289703285,0.13687003545403903,0.1395972835537533,0.13864024891141044,0.13872634783105228,0.1396271901878345,0.13360880417928744,0.14081277141723292,0.1303312561310835,0.1389369906707991,0.13955624575093337,0.1371376081869135
2.2309999465942383,blue.png,0.10191011898638236,0.1409064028747562,0.13837909112919464,0.13691333078304896,0.13840472858008487,0.13686829201797152,0.13959314848102908,0.13863642676310858,0.1387255878717408,0.1396281513128461,0.13358799470519955,0.14081424663236697,0.1303284621630266,0.13893674480161008,0.13955651397186683,0.1372517361941023
2.2309999465942383,blue.png,0.10185681007585645,0.14090573232242254,0.1383844555478639,0.13690497123062267,0.13841022710922088,0.13687151066917308,0.13960077042588834,0.13864147825735548,0.13872882887468682,0.13962656433898976,0.13361716373171373,0.1408145372050449,0.1303704163873692,0.13893969523187819,0.1395599784922574,0.13705825949409717
2.2309999465942383,blue.png,0.10188276045116906,0.14090548645323353,0.1383802534199063,0.1369059100038898,0.1384088189493202,0.1368698566400834,0.1395971941467755,0.13863928778639886,0.13872590079616318,0.1396298500454247,0.13360791010950923,0.14081411252190024,0.1303109607471181,0.13893940465920027,0.13955584341953317,0.13728740957825297
2.2309999465942383,blue.png,0.10190200530314508,0.14090803455210144,0.13838327090540778,0.13691259317548193,0.13840560029811863,0.1368718459453399,0.13959840114097607,0.1386383713648762,0.13872927590957593,0.13962788309191262,0.13360520554843014,0.14081596771669003,0.13032566819496968,0.13893656598765444,0.1395599784922574,0.13708313698567592
2.2309999465942383,blue.png,0.10184702001178503,0.14090338538925473,0.13838154982108472,0.13690074675092062,0.1384096683156095,0.13686858259064943,0.1395988928793541,0.13863714201893115,0.1387272866043194,0.139627950147146,0.13361571086832413,0.14081241378932163,0.1302983543632453,0.13893582838008742,0.13955680454454475,0.1371367141171353
2.2309999465942383,blue.png,0.10190942608230424,0.1409070510753454,0.13837933699838365,0.13691230260280401,0.13840468387659596,0.13686887316332735,0.1395949366205855,0.13863524212065245,0.13872648194151901,0.1396288889204131,0.13357862932427278,0.14081326315561093,0.13027318629898862,0.13893366026087525,0.13955655867535574,0.1372352406066943
2.2309999465942383,blue.png,0.10185517839851121,0.14090392183112166,0.13838137100712908,0.13690208785558794,0.1384072096237194,0.13686918608774973,0.13959907169330973,0.1386369632049755,0.13872737601129723,0.13962450797849987,0.13359445435934714,0.140810223318365,0.13029663327892224,0.13893211799050784,0.13955751980036732,0.1370251789123033
2.2309999465942383,blue.png,0.1018609898520696,0.1409028489473878,0.1383762524576488,0.13690284781489942,0.13840560029811863,0.1368661015470149,0.1395942884199963,0.1386323140421288,0.1387241350083512,0.13962757016749025,0.13358128918186296,0.14080919513812007,0.13024721357193156,0.13893209563876338,0.13955360824508764,0.1372476905283559
2.2309999465942383,blue.png,0.10186776243063955,0.14090452532822195,0.1383782641146498,0.1369097098004472,0.13840197931551687,0.13686831436971597,0.13959583069036371,0.1386342139404075,0.13872713014210822,0.13962618435933402,0.13357348842304806,0.1408113856090767,0.13027937773220274,0.1389311345137518,0.13955765391083405,0.13704285914216746
2.2309999465942383,blue.png,0.10178280344996493,0.14089790921186318,0.13837468783553694,0.13689591877411827,0.1384042144899624,0.13686373226210263,0.1395938860885961,0.13863200111770643,0.1387228386071728,0.13962390448139958,0.13359230859187943,0.14080628941134088,0.13027296278154407,0.1389298828160623,0.13955251300960933,0.13709522927942625
2.2320001125335693,blue.png,0.1018409850407821,0.14090213369156523,0.13837287734423606,0.1369078546056574,0.13839990060328253,0.1368642463522251,0.13959171796938394,0.13862994475721654,0.13872379973218438,0.13962663139422313,0.13356325132408753,0.14080941865556462,0.13026066932209365,0.1389304863131626,0.1395540329282323,0.13721476640877323
2.2330000400543213,blue.png,0.10178090355168623,0.14090150784272049,0.13837743710010494,0.1369000538468425,0.13840477328357378,0.13686683915458192,0.13959781999562024,0.13863361044330721,0.13872487261591823,0.1396230998185992,0.13358258558304137,0.14080794344043057,0.13030456814820388,0.13893077688584052,0.1395555304951108,0.1370181381127999
2.2330000400543213,blue.png,0.10177799782490704,0.1408994514822306,0.1383719609227134,0.13690023266079815,0.138403163957973,0.1368633522824469,0.13959314848102908,0.13863048119908347,0.1387223915722837,0.13962703372562332,0.13357069445499115,0.1408078316817083,0.13026513967098471,0.1389322297492301,0.1395522224369314,0.13724780228707817
2.2330000400543213,blue.png,0.10179451576405951,0.14090231250552088,0.13837479959425922,0.13690823458531315,0.13840043704514945,0.13686612389875935,0.13959451193744085,0.1386331634084181,0.13872357621473982,0.13962390448139958,0.13356354189676545,0.14080818930961958,0.13029287818585375,0.13892941342942874,0.13955434585265467,0.13705611372662946
2.2330000400543213,blue.png,0.10173114856852872,0.14089598696184003,0.1383718044605022,0.13689419768979522,0.1384021134259836,0.13686198882603512,0.13959131563798374,0.13863090588222812,0.13872042461877163,0.13962251867324335,0.13358426196387552,0.14080409894038426,0.13027698609554603,0.1389283852491838,0.13954949552410786,0.13710443819814183
2.2330000400543213,blue.png,0.10180180243275194,0.1409011055113203,0.1383716032948021,0.1369064017422678,0.13839735250441462,0.13686317346849125,0.13958780641410426,0.13862920714964952,0.13872169866820558,0.13962540204827809,0.13356215608860922,0.14080749640554147,0.13025505903423537,0.1389273794206833,0.13955065781481954,0.13723056909210313
2.2330000400543213,blue.png,0.1017471077140698,0.1408992056130416,0.1383751572221705,0.13689674578866312,0.13840077232131628,0.1368633522824469,0.13959171796938394,0.1386295647775608,0.13872254803449488,0.13962068583019802,0.13358269734176365,0.14080519417586257,0.13029073241838604,0.1389254795224046,0.13955144012587548,0.13702144617097928
2.2339999675750732,blue.png,0.10175329914728393,0.14089793156360764,0.13837059746630162,0.1368971034165744,0.13840005706549371,0.13686067007311226,0.13958715821351506,0.13862668140252607,0.13871850236874847,0.13962296570813246,0.13357219202186965,0.14080360720200624,0.1302581882784591,0.13892532306019342,0.1395467239077954,0.1372436895660984
2.2339999675750732,blue.png,0.10176715722884622,0.1408981550810522,0.1383713574256131,0.136903563070722,0.13839563142009156,0.1368612512184681,0.13958776171061535,0.13862670375427052,0.1387207822466829,0.13962070818194247,0.13356349719327654,0.1408049259549291,0.13029654387194442,0.13892371373459264,0.139550434297375,0.13705074930796018
2.2350001335144043,blue.png,0.10170414766122671,0.14089393060135014,0.13837082098374617,0.136892811881639,0.13840115230097202,0.13686013363124533,0.13958916987051603,0.13862759782404874,0.13871910586584876,0.13962106580985376,0.13358184797547434,0.14080219904210556,0.1302886090026628,0.13892530070844897,0.13954815441944055,0.13708821083166728
2.2350001335144043,blue.png,0.10177442154579419,0.14089770804616308,0.1383688093267452,0.1369037642364221,0.13839619021370295,0.13686075948009008,0.13958530301872527,0.13862643553333706,0.13871991052864915,0.13962432916454423,0.1335550705856169,0.14080568591424059,0.1302688947640532,0.1389267312200941,0.1395496296345746,0.13721174892327176
2.2350001335144043,blue.png,0.10172647705393756,0.1408990938543193,0.13837585012624862,0.13689819865205272,0.13840267221959499,0.13686487220106985,0.13959357316417373,0.13863157643456178,0.13872176572343894,0.13962075288543138,0.13358113271965177,0.14080461303050673,0.1303095078837285,0.1389271782549832,0.1395517754020423,0.13700705164755006
2.2350001335144043,blue.png,0.10173624476626453,0.14089732806650734,0.13837064216979053,0.1368975057479746,0.13840139817016103,0.13686075948009008,0.13958785111759317,0.138626971975204,0.13871725067105897,0.13962218339707652,0.13358330083886394,0.1408024225595501,0.13028337869446024,0.13892675357183856,0.1395466792043065,0.13723711815322853
2.2360000610351562,blue.png,0.10176232925204387,0.14089600931358448,0.13836979280350123,0.13690262429745487,0.13839500557124682,0.13685923956146712,0.13958782876584871,0.13862670375427052,0.1387188823484042,0.13961871887668595,0.1335865641935544,0.1408034283880506,0.13032289657865723,0.1389247866183265,0.13954936141364113,0.1370593994330644
2.2360000610351562,blue.png,0.10170674046358352,0.14089178483388243,0.1383693010651232,0.1368905990589379,0.13839925240269332,0.13685687027655485,0.1395873370274707,0.1386262120158925,0.13871709420884779,0.13961856241447476,0.13361139698164426,0.14080074617871596,0.13031127367154047,0.13892572539159362,0.13954650039035085,0.13709976668355067
2.2360000610351562,blue.png,0.10178336224357631,0.1408969033833627,0.13836878697500074,0.1369029595736217,0.13839538555090256,0.13685863606436682,0.13958454305941378,0.13862585438798122,0.1387186811827041,0.1396221386935876,0.13358435137085334,0.14080450127178445,0.1302895477759299,0.1389264406474162,0.13954808736420718,0.13723287132178202
2.2360000610351562,blue.png,0.10173722824302056,0.14089603166532894,0.13837359260005863,0.13689524822178462,0.13839898418175986,0.13686031244520097,0.1395903321612277,0.13862822367289349,0.13871912821759322,0.13961697544061843,0.133601025772217,0.14080186376593873,0.13031569931694262,0.13892404901075947,0.13954851204735183,0.13701719933953277
2.2360000610351562,blue.png,0.10175023695829355,0.14089393060135014,0.13836867521627846,0.1368941082828174,0.13839697252475888,0.1368566467591103,0.1395837831001023,0.1386247591525029,0.13871450140649097,0.1396186965249415,0.13359724832740405,0.14079978505370438,0.13027446034842258,0.1389231772927257,0.13954299116647137,0.1372391298102295
2.2360000610351562,blue.png,0.10178275874647602,0.14089612107230676,0.13837088803897954,0.1369018643381434,0.13839359741134613,0.13685839019517781,0.1395845877629027,0.13862478150424737,0.13871935173503777,0.13961925531855288,0.13359331442037992,0.14080425540259545,0.1303101560843177,0.13892351256889254,0.13954913789619658,0.13705602431965164
2.2360000610351562,blue.png,0.10171974917885651,0.1408910472263154,0.1383694575273344,0.13688968263741524,0.13839813481547056,0.13685608796549892,0.13958496774255844,0.13862330628911332,0.13871454610997988,0.13961641664700705,0.13361669434508017,0.14079868981822607,0.1303135535494749,0.13892221616771414,0.13954363936706057,0.1370929494014918
2.2360000610351562,blue.png,0.10178977719423499,0.14089348356646103,0.13836641769008848,0.1369005008817316,0.13839252452761228,0.13685642324166575,0.1395808326698342,0.13862225575712392,0.1387139426128796,0.1396186965249415,0.1335896710860337,0.1408008802891827,0.13029728147951145,0.13892270790609215,0.1395437287740384,0.13723959919686307
2.2360000610351562,blue.png,0.1017506616414382,0.14089158366818233,0.13836997161745687,0.13689263306768334,0.13839545260613592,0.13685792080854425,0.13958592886757,0.13862444622808054,0.13871385320590177,0.13961292977487202,0.13361003352523249,0.14079763928623668,0.13034502480566798,0.13892116563572474,0.13954415345718305,0.13702982807515002
2.2360000610351562,blue.png,0.10176650902825701,0.14088867794140314,0.13836369077726493,0.13689097903859365,0.13839420090844642,0.13685336105267537,0.1395814808704234,0.13862113816990115,0.13871150627273396,0.1396161931295625,0.13360283626351788,0.1407968793269252,0.13030803266859445,0.13892261849911433,0.13954091245423703,0.13724985864756806
2.2360000610351562,blue.png,0.10180115423216274,0.14089247773796054,0.13836708824242214,0.13690074675092062,0.13839212219621208,0.1368553950614208,0.13958347017567993,0.13862323923387995,0.13871400966811295,0.13961357797546123,0.13360004229546096,0.14079866746648162,0.1303419626166776,0.13892076330432454,0.13954446638160542,0.13707513506116092
2.7100000381469727,blue.png,0.10173852464419897,0.14088561575241276,0.13836398134994285,0.13688628517225804,0.13839417855670197,0.1368503435671739,0.13958159262914568,0.13862104876292333,0.1387106792581891,0.13961105222833778,0.13362429393819497,0.14079415241410165,0.13033235136656182,0.1389199362897797,0.1395399736809699,0.13709683860502703
2.7100000381469727,blue.png,0.10181235245613485,0.14089046608095956,0.13836344490807592,0.13689826570728608,0.13839004348397774,0.13685161761660786,0.13957839632968858,0.13861984176872275,0.13871119334831158,0.1396143379347727,0.13359865648730473,0.14079730401006985,0.13030391994761467,0.13892049508339108,0.13954086775074812,0.13724422600796532
2.7100000381469727,blue.png,0.10177500269115003,0.140887493298947,0.1383657024342659,0.13688852034670357,0.13839057992584466,0.13685128234044103,0.13958051974541183,0.1386199088239561,0.13871009811283327,0.1396080347428363,0.13361629201367997,0.14079330304781235,0.13033559236950784,0.13891729878393397,0.13954004073620327,0.13702940339200537
2.7100000381469727,blue.png,0.10177864602549624,0.14088568280764613,0.13836082975397465,0.13688684396586942,0.1383900658357222,0.13684801898575055,0.13957575882384285,0.13861655606228782,0.1387063877232537,0.13961067224868204,0.13360355151934045,0.14079176077744493,0.13028778198811794,0.13891689645253377,0.1395353692216121,0.1372449859672768
2.7100000381469727,blue.png,0.10181096664797862,0.14088688980184672,0.1383612544371193,0.13689408593107294,0.13838517080368648,0.1368488460002954,0.13957504356802028,0.1386160196204209,0.1387093828570107,0.13960926408878135,0.13359208507443487,0.140793973600146,0.13031531933728688,0.13891475068506606,0.13953943723910298,0.13707392806696034
2.7100000381469727,blue.png,0.10174509605706883,0.14088226299074447,0.13836074034699683,0.1368821500995338,0.13839028935316675,0.13684712491597234,0.1395772340389769,0.13861599726867643,0.13870611950232023,0.13960687245212464,0.13361255927235594,0.1407893244372993,0.13030912790407276,0.13891334252516538,0.13953514570416756,0.13708648974734422
2.7100000381469727,blue.png,0.10180908910144437,0.1408851910692681,0.1383578569719621,0.1368922530880276,0.1383845673065862,0.13684663317759432,0.13957251782089683,0.13861324800410843,0.1387080864558323,0.13961230392602728,0.13359009576917835,0.1407944206350351,0.13028907838929635,0.13891631530717793,0.13953780556175774,0.137242884903298
2.7100000381469727,blue.png,0.10176767131896869,0.1408870909675468,0.13836518834414344,0.1368877603873921,0.13839019994618892,0.13685125998869657,0.1395803409314562,0.13861845596056652,0.1387082876215324,0.13960736419050265,0.13361758841485838,0.14079196194314503,0.13033894513117614,0.1389151306647218,0.13953878903851377,0.1370301409995724
2.7109999656677246,blue.png,0.10177471211847211,0.1408823523977223,0.138357901675451,0.1368835582594345,0.13838700364673182,0.1368456497008383,0.1395736801116085,0.13861318094887506,0.13870509132207529,0.1396100911033262,0.13362020356895965,0.1407906208384777,0.13031082663665136,0.13891620354845566,0.13953476572451182,0.13725862053139454
2.7109999656677246,blue.png,0.10180674216827656,0.14088552634543494,0.13836058388478564,0.13689363889618383,0.13838450025135282,0.1368483989654063,0.13957531178895374,0.13861548317855396,0.138707482958732,0.13960792298411404,0.13361204518223346,0.14079258779198978,0.1303383192823314,0.13891401307749904,0.13953816318966902,0.13709243531136933
2.7109999656677246,blue.png,0.10174037983898876,0.14087870906337607,0.13835781226847318,0.13687949024194362,0.1383876071438321,0.1368441968374487,0.13957506591976473,0.1386135162250419,0.138704733694164,0.13960497255384594,0.13363122297897612,0.14078771511169852,0.1303318149246949,0.13891336487690983,0.13953405046868925,0.13709623510792673
2.7109999656677246,blue.png,0.10180128834262947,0.14088402877855644,0.13835732053009517,0.13689209662581642,0.1383845673065862,0.13684531442467146,0.13957251782089683,0.13861378444597536,0.13870752766222091,0.13961031462077075,0.1336073289641534,0.14079285601292324,0.13030713859881624,0.13891669528683367,0.13953729147163527,0.13725030568245716
2.7109999656677246,blue.png,0.10175814947583073,0.14088373820587852,0.1383619026377085,0.136885547564691,0.13838792006825448,0.13684743784039471,0.13957779283258828,0.13861680193147682,0.13870795234536556,0.13960546429222395,0.13361796839451412,0.14079030791405533,0.1303320607938839,0.13891446011238814,0.1395378279135022,0.13702276492390214
2.7109999656677246,blue.png,0.10176481029567841,0.1408840511303009,0.1383591086696516,0.13688552521294656,0.13838903765547725,0.1368462979014275,0.13957372481509742,0.13861487968145367,0.13870627596453142,0.1396102922690263,0.13361336393515633,0.14079109022511127,0.1302929005375982,0.1389159353275222,0.13953554803556775,0.13723600056600577
2.7109999656677246,blue.png,0.10180421642115312,0.14088653217393543,0.13836058388478564,0.13689379535839502,0.13838458965833064,0.13684687904678333,0.1395747306435979,0.13861344916980853,0.13870835467676576,0.13960868294342552,0.13360603256297499,0.1407932806960679,0.13032164488096773,0.13891307430423191,0.13953865492804704,0.1370724528518263
2.7109999656677246,blue.png,0.10174844881873712,0.14088201712155546,0.13835986862896307,0.1368812560297556,0.13838868002756596,0.1368446438723378,0.13957475299534236,0.13861387385295318,0.138704487824975,0.1396058442718797,0.13362708790625188,0.1407884303675211,0.13031983438966685,0.13891155438560895,0.13953380459950024,0.1370754032820944
2.7109999656677246,blue.png,0.10181454292709147,0.14088427464774544,0.1383564041085725,0.1368910013903381,0.13838217566992947,0.1368436380438373,0.13956885213480616,0.13861103518140735,0.13870611950232023,0.13961071695217095,0.13359941644661621,0.14079305717862334,0.1302933475724873,0.13891410248447686,0.1395357715530123,0.13723725226369526
2.7109999656677246,blue.png,0.10178135058657534,0.1408853475314793,0.1383629531696979,0.13688626282051358,0.1383873165711542,0.13684801898575055,0.1395765858383877,0.13861537141983168,0.13870672299942052,0.13960537488524613,0.13362111999048232,0.1407906208384777,0.13034875754699202,0.13891285078678736,0.13953695619546844,0.13702479893264757
2.7109999656677246,blue.png,0.10178850314480103,0.14088277708086694,0.13835794637893992,0.1368840052943236,0.13838765184732102,0.13684497914850463,0.1395732777802083,0.13861349387329744,0.13870466663893063,0.13960910762657017,0.13361609084797987,0.1407904196727776,0.1303131065145858,0.13891551064437754,0.13953400576520034,0.13724225905445325
2.7109999656677246,blue.png,0.1018260317237415,0.14088525812450148,0.13835984627721862,0.13689392946886175,0.13838387440250807,0.13684703550899452,0.13957345659416395,0.1386133597628307,0.13870752766222091,0.13960761005969166,0.1336067254670531,0.14079294541990106,0.1303445107155455,0.1389138789670323,0.13953816318966902,0.13708499218046571
2.7120001316070557,blue.png,0.10176136812703229,0.14087915609826518,0.1383581028411511,0.13688056312567748,0.13838762949557656,0.13684392861651523,0.13957466358836454,0.13861259980351923,0.13870357140345232,0.13960474903640138,0.13362856312138593,0.14078778216693189,0.1303438178114674,0.13891291784202073,0.1395333799163556,0.1370855062705882
2.7120001316070557,blue.png,0.10183202199125552,0.1408809442378216,0.13835378895447123,0.1368894591199707,0.13838043223386196,0.13684276632580356,0.13956806982375022,0.13861074460872944,0.13869990571736165,0.13960465962942356,0.13360346211236263,0.14078699985587595,0.1303114524854961,0.13891045915013064,0.13952996009945393,0.1372483387289451
2.7120001316070557,blue.png,0.10179563335128228,0.14087832908372033,0.1383563594050836,0.13688078664312203,0.13838052164083978,0.13684205106998099,0.13956929916969527,0.13861005170465132,0.1387001292348062,0.13959857995493172,0.13362371279283913,0.14078418353607458,0.1303478634772138,0.13890699462974007,0.13953034007910967,0.137018831016878
2.7120001316070557,blue.png,0.10180064014204027,0.1408751998394966,0.13835092793118095,0.136877299770987,0.1383795158123393,0.13683717838968973,0.13956473941382638,0.138605715466227,0.13869954808945037,0.13960278208288932,0.13362726672020753,0.14078454116398587,0.1303183591745328,0.13890916274895224,0.13952846253257542,0.137229630318836
2.7120001316070557,blue.png,0.10183962158437032,0.1408815477349219,0.13835566650100548,0.13689039789323781,0.1383799628472284,0.13684196166300316,0.13956847215515042,0.13860877765521737,0.13870417490055262,0.1396028938416116,0.13360909475196536,0.1407884303675211,0.13033883337245386,0.13890869336231867,0.1395338716547336,0.13707247520357074
2.7120001316070557,blue.png,0.10178872666224559,0.1408760492057859,0.13835439245157152,0.13687694214307572,0.13838374029204134,0.1368387877152905,0.13956936622492863,0.13860897882091747,0.13869954808945037,0.13959884817586518,0.13362749023765208,0.14078239539651816,0.13033619586660813,0.13890616761519523,0.13952828371861978,0.1370640932994
2.7120001316070557,blue.png,0.10185987226484683,0.1408775914761533,0.13834983269570264,0.13688474290189062,0.13837631951288218,0.13683637372688934,0.13956277246031432,0.138603457940037,0.13869767054291612,0.13960135157124418,0.13359579546401446,0.14078411648084121,0.13030083540687984,0.13890580998728394,0.13952678615174127,0.13723164197583698
2.7120001316070557,blue.png,0.10182283542428439,0.1408768985720752,0.1383545489137827,0.13687819384076522,0.13837819705941642,0.13683901123273506,0.13956764514060557,0.13860788358543916,0.13869885518537226,0.13959732825724222,0.1336189295195257,0.14078315535582964,0.13034500245392353,0.1389062793739175,0.13952868605001997,0.1370170875808105
2.7120001316070557,blue.png,0.10182524941268556,0.1408747975080964,0.13835063735850303,0.13687607042504196,0.13837904642570573,0.13683682076177844,0.13956406886149272,0.1386063636668162,0.13869630708650435,0.1396003457427437,0.13361984594104837,0.14078214952732915,0.1303089043866282,0.138907285202418,0.13952510977090712,0.13723130669967015
2.7130000591278076,blue.png,0.10186362735791532,0.14087721149649757,0.13835191140793698,0.13688628517225804,0.1383758054227597,0.13683843008737923,0.13956467235859302,0.1386055143005269,0.1387002856970174,0.1396002339840214,0.13361188872002228,0.14078615048958665,0.13034120265736612,0.13890645818787314,0.13953054124480976,0.13708970839854578
2.7130000591278076,blue.png,0.10180204830194095,0.1408729423133066,0.13835242549805946,0.13687452815467455,0.13838143806236244,0.13683735720364537,0.139567175753972,0.13860732479182777,0.13869789406036068,0.13959777529213133,0.13363864375813528,0.14078201541686242,0.13034708116615787,0.13890697227799562,0.13952721083488592,0.13708217586066435
2.7130000591278076,blue.png,0.1018753396720099,0.14087580333659688,0.1383490056811578,0.1368840052943236,0.13837564896054852,0.13683661959607835,0.1395621242597251,0.13860497785865997,0.13869644119697108,0.13959969754215448,0.1336096311938323,0.14078315535582964,0.1303137100116861,0.13890639113263978,0.13952595913719643,0.1372557818598487
2.7130000591278076,blue.png,0.10184536598269534,0.14087405990052937,0.138352157277126,0.13687707625354245,0.13837582777450416,0.1368369995757341,0.13956534291092668,0.13860529078308234,0.13869512244404822,0.13959310377754017,0.13362574680158457,0.1407793779110167,0.13035273615750506,0.13890299366748257,0.1395250650674182,0.1370306327379504
2.7130000591278076,blue.png,0.1018439801745391,0.14087066243537216,0.13834639052705652,0.13687303058779604,0.13837459842855912,0.13683248452335411,0.13955962086434612,0.13860162509699167,0.13869286491785823,0.1395971941467755,0.1336201812172152,0.14077913204182768,0.13031543109600915,0.13890473710355009,0.13952184641621665,0.13723729696718417
2.7130000591278076,blue.png,0.10188372157618064,0.14087600450229698,0.13834992210268046,0.13688606165481348,0.13837354789656972,0.13683601609897805,0.1395629289225255,0.13860457552725977,0.1386977823016384,0.13959777529213133,0.1336079771647426,0.14078360239071874,0.13034540478532372,0.1389043794756388,0.13952785903547513,0.13709259177358052
2.7130000591278076,blue.png,0.10181744865387066,0.140870997711539,0.13834954212302472,0.1368734552709407,0.13837893466698345,0.13683400444197708,0.13956494057952648,0.13860419554760403,0.1386945860021813,0.13959415430952957,0.13363694502555667,0.14077834973077175,0.1303537196342611,0.13890294896399366,0.13952367925926198,0.13707656557280606
2.7139999866485596,blue.png,0.10188383333490292,0.14087307642377334,0.1383458540851896,0.136882552430934,0.13837307850993616,0.13683275274428758,0.13955890560852355,0.13860164744873613,0.13869431778124783,0.1395973953124756,0.13360996646999912,0.140780719015684,0.1303204602385116,0.1389033736471383,0.1395237239627509,0.1372571900197494
2.7139999866485596,blue.png,0.10185035042170887,0.1408754457086856,0.13835296193992638,0.136879557297177,0.13837737004487158,0.13683771483155666,0.13956605816674925,0.13860634131507174,0.13869767054291612,0.13959536130373015,0.13362094117652668,0.1407815236784844,0.13035564188428425,0.138904781807039,0.1395275237593083,0.13702761525244894
2.7139999866485596,blue.png,0.10185021631124214,0.14087135533945028,0.13834688226543454,0.13687443874769673,0.13837589482973753,0.1368330433169655,0.13956067139633552,0.13860283209119226,0.13869201555156893,0.13959567422815253,0.13362134350792687,0.14077785799239373,0.1303215554739899,0.1389033289436494,0.13952090764294953,0.1372399344730299
2.7139999866485596,blue.png,0.10189686440192036,0.14087367992087363,0.13834784339044612,0.1368840499978125,0.1383712009634019,0.13683400444197708,0.1395599337887685,0.1386032567743369,0.13869472011264802,0.1395949366205855,0.13361231340316693,0.14078076371917292,0.13034723762836906,0.13890149610060407,0.13952466273601802,0.1371108531488005
2.7139999866485596,blue.png,0.10182636699990832,0.14086715321149268,0.1383464575822899,0.13687008015752794,0.13837497840821486,0.13683040581111977,0.1395610737277357,0.13860137922780266,0.1386901827085236,0.13958981807110524,0.13363734735695687,0.14077425936153642,0.13035559718079534,0.13889829980114696,0.1395194771313044,0.13708856845957856
2.7139999866485596,blue.png,0.10188466034944776,0.14086905310977138,0.13834259073049912,0.13687884204135442,0.13836979280350123,0.13682960114831938,0.13955526227417733,0.1385980041143899,0.1386918367376133,0.1395952942484968,0.1336128721967783,0.14077868500693858,0.1303274116310372,0.13890209959770436,0.13952144408481645,0.13727431145600216
2.7139999866485596,blue.png,0.10185037277345332,0.14087117652549463,0.13834951977128027,0.13687609277678642,0.13837419609715892,0.13683447382861064,0.13956339830915906,0.13860363675399265,0.13869436248473674,0.1395917850246173,0.13362851841789702,0.1407783720825162,0.13036869530304615,0.13890169726630416,0.13952450627380683,0.13704062396772193
2.7139999866485596,blue.png,0.10184322021522763,0.14087010364176078,0.13834656934101217,0.13687376819536307,0.13837605129194872,0.1368328421512654,0.13956076080331334,0.1386025638702588,0.13869239553122467,0.13959576363513035,0.13362728907195198,0.14077808150983828,0.13032738927929274,0.13890386538551633,0.13952133232609418,0.13724447187715433
2.7139999866485596,blue.png,0.10189087413440634,0.14087193648480612,0.13834618936135643,0.13688208304430044,0.13837001632094578,0.1368330880204544,0.1395580338904898,0.13860124511733593,0.13869257434518031,0.13959232146648423,0.13361155344385545,0.1407781709168161,0.1303481093464028,0.13889921622266962,0.1395224275615725,0.13711217190172337
2.7149999141693115,blue.png,0.10182674697956406,0.14086637090043674,0.13834518353285594,0.13686802379703805,0.1383741066901811,0.1368301375901863,0.13956067139633552,0.1386009098411691,0.1386908756126017,0.1395902874577388,0.13363294406329917,0.14077459463770325,0.13035544071858415,0.1388990821122029,0.1395201253318936,0.1370746433227829
2.7149999141693115,blue.png,0.10189141057627327,0.14087057302839434,0.13834326128283278,0.1368787973378655,0.13837079863200172,0.13683083049426442,0.13955693865501148,0.1385994122742906,0.1386910320748129,0.13959437782697412,0.1336047808652855,0.14077761212320472,0.13032233778504584,0.13890100436222605,0.13952043825631597,0.13726152625817373
