Timestamp,Filename,1/Fp1,2/Fp2,3/Cz,4/Pz,5/P7,6/P8,7/O1,8/O2,9/CP5,10/CP6,11/CP1,12/CP2,13/PO3,14/PO4,15/P3,16/P4
0.2999999523162842,black.png,0.11224308457888181,0.13680581889221893,0.13396759438128406,0.1348714318718233,0.13467415537526076,0.13319616862489803,0.13572891184436223,0.13485489158092637,0.1348481190023564,0.1354906198967242,0.1310120679154477,0.13628839835982304,0.12978193965934987,0.13510634870604857,0.13554839915614117,0.12584492574273654
0.2999999523162842,black.png,0.11210689539991563,0.1367778345081609,0.13393784420941404,0.13491016744496434,0.13466454412514497,0.1331708217466857,0.13570398964929456,0.13484179345867556,0.13483088580738137,0.13547513013781667,0.13092684071383962,0.13627297565614888,0.12966506238759307,0.1350834828714708,0.135527232054142,0.126348577600548
0.30099987983703613,black.png,0.11224681732020585,0.13679909101713789,0.13395945834630232,0.1348878827557424,0.1346618842675548,0.1331863338573377,0.13571804889655695,0.13484226284530912,0.13485545037453775,0.13549904650438385,0.13101761114807262,0.13629825547912783,0.12976910975803252,0.13509304941809766,0.13555396474051054,0.12558960176582357
0.30099987983703613,black.png,0.1121748223513153,0.136791536127512,0.13395344572704385,0.13488504408419658,0.13467605527353946,0.13318523862185938,0.13571943470471318,0.1348533269588145,0.13483229396728205,0.13547434782676074,0.1309492595135283,0.13627223804858185,0.12970082517872156,0.13509745271175536,0.13553040600185465,0.12632649407702615
0.30099987983703613,black.png,0.11216295357500954,0.13678105315936245,0.13394135343329353,0.1349109944595092,0.1346564751453966,0.1331706205809856,0.13570273795160506,0.1348335233132271,0.13484519092383276,0.1354903740275352,0.13097833913306464,0.13628969476100145,0.12970858123404755,0.13508106888306962,0.13554220772292705,0.1259390712903823
0.30099987983703613,black.png,0.11225271818074205,0.13680445543580716,0.13396690147720594,0.1348708730782119,0.13467384245083838,0.13319500633418635,0.1357281742367952,0.13485294697915876,0.1348478284296785,0.13548947995775698,0.13102165681381903,0.1362879736766784,0.12978556064195163,0.1351052311188258,0.13554804152822988,0.1258765534611408
0.30099987983703613,black.png,0.11211760188550972,0.13677673927268258,0.13393777715418068,0.13490936278216395,0.13466485704956735,0.13317048647051888,0.13570369907661664,0.13484130172029754,0.13483014819981434,0.13547580069015033,0.13093323331275383,0.13627402618813828,0.129671097358596,0.13508536041800503,0.1355282825861314,0.1263867320283332
0.30099987983703613,black.png,0.11223117109908713,0.13679676643571453,0.13395733493057907,0.13488732396213102,0.13466114665998777,0.13318521627011493,0.13571708777154537,0.13484101114761962,0.13485361753149241,0.13549783951018327,0.1310238249330312,0.13629733905760516,0.12977655288893614,0.13509269179018638,0.13555336124341025,0.1256299466645654
0.3020000457763672,black.png,0.11216954733962385,0.13679144672053417,0.13395319985785484,0.13488321124115124,0.13467596586656164,0.13318561860151512,0.13571988173960228,0.13485301403439212,0.13483093051087028,0.13547432547501628,0.13095024299028432,0.13627210393811512,0.12970936354510348,0.1350970280286107,0.1355305848158103,0.12629882261739048
0.3020000457763672,black.png,0.11215497400223899,0.1367795332407395,0.1339395205902482,0.1349059876687512,0.13465515639247375,0.1331696818077185,0.13570197799229358,0.1348325174847266,0.13484418509533228,0.13549003875136836,0.1309760592551302,0.13628915831913452,0.12970996704220378,0.13508113593830298,0.13554205126071586,0.12590328614750934
0.3020000457763672,black.png,0.11223550733751146,0.1368044330840627,0.13396643209057238,0.13486834733108846,0.1346728813258268,0.13319520749988645,0.135727771905395,0.1348535281245146,0.1348485213337566,0.13549117869033558,0.13101747703760588,0.13628918067087897,0.12978245374947234,0.13510621459558184,0.13554936028115275,0.12582239518432559
0.3020000457763672,black.png,0.1121068059929378,0.1367791309093393,0.1339401687908374,0.13490802167749663,0.1346665781338904,0.13317303456938678,0.13570658245165138,0.13484554855174405,0.13483334449927145,0.13547846054774051,0.1309360943360441,0.13627635076956163,0.12967626061156518,0.13508826614478422,0.13553065187104366,0.12632944450729425
0.30299997329711914,black.png,0.11221952584022592,0.136797034656648,0.13395798313116827,0.13488506643594103,0.13466085608730985,0.13318590917419304,0.1357174230477122,0.13484275458368714,0.13485529391232656,0.13549933707706177,0.13101738763062806,0.13629845664482793,0.12977568117090238,0.13509380937740914,0.13555407649923282,0.12557286030922654
0.30299997329711914,black.png,0.11217307891524779,0.13679200551414555,0.13395425038984424,0.13488200424695065,0.13467547412818362,0.1331865350230378,0.13572030642274693,0.13485444454603726,0.13483383623764947,0.1354757112831725,0.13095238875775203,0.13627357915324917,0.1297155549783176,0.13509955377573415,0.13553194827222206,0.12628212586428236
0.30299997329711914,black.png,0.11216056193835282,0.13678044966226216,0.1339408169914266,0.13490864752634138,0.1346555363721295,0.13317064293273007,0.13570233562020487,0.13483557967371698,0.1348476272639784,0.13549164807696915,0.13097038191203855,0.1362910135139243,0.1297129621759608,0.1350835275749597,0.13554330295840536,0.12590131919399727
0.30299997329711914,black.png,0.11224393394517111,0.13680597535443012,0.13396808611966207,0.1348721247759014,0.13467379774734947,0.13319616862489803,0.13572864362342876,0.1348546233599929,0.13485136000530243,0.13549140220778014,0.13101410192419313,0.1362898735749571,0.12978513595880697,0.13510601342988174,0.13554976261255294,0.12579640010552406
0.3039999008178711,black.png,0.11212055231577782,0.1367793320750394,0.1339400123286262,0.13490972041007523,0.1346659299333012,0.1331720734443752,0.13570483901558386,0.13484300045287614,0.1348348197144055,0.135476962980862,0.13093028288248573,0.1362753672928056,0.12967552300399815,0.13508654506046117,0.13552960133905426,0.12631522879782067
0.3039999008178711,black.png,0.11223020997407555,0.1367957382554696,0.1339567761369677,0.1348872345551532,0.13465911265124234,0.13318353988928078,0.13571465143139974,0.13483993826388577,0.13485574094721567,0.13549734777180525,0.13102239442138605,0.1362972720023718,0.12978383955762857,0.13509161890645252,0.13555295891201005,0.12554518884959087
0.3039999008178711,black.png,0.11216221596744251,0.13679102203738952,0.13395400452065523,0.13488401590395163,0.13467489298282778,0.13318523862185938,0.13571896531807962,0.13485263405473638,0.1348345738452165,0.13547454899246084,0.13095846843224387,0.13627293095265997,0.1297249650627333,0.1350984808920003,0.13553145653384405,0.12625662252385886
0.3039999008178711,black.png,0.11215173299929297,0.13677901915061702,0.13393992292164839,0.1349108827007869,0.13465495522677365,0.13316916771759602,0.13570045807367062,0.134833813885905,0.1348472696360671,0.13548943525426807,0.13098292124067798,0.13628949359530135,0.12972451802784418,0.1350823205807591,0.13554231948164933,0.12590093921434153
0.3039999008178711,black.png,0.11223966476198015,0.13680197439217262,0.1339652697998607,0.13487221418287923,0.134671026131037,0.13319290527020755,0.13572513439954928,0.13485178468844708,0.1348489683686457,0.1354882729635564,0.13102670830806593,0.13628770545574492,0.12979523894730077,0.1351041805868364,0.1355472815689184,0.1257922873845443
0.3039999008178711,black.png,0.11212768252225906,0.13677591225813773,0.13393840300302542,0.13490902750599712,0.1346633818344333,0.13316898890364037,0.13570153095740448,0.13484134642378645,0.13483475265917214,0.13547524189653895,0.13095931779853318,0.13627483085093867,0.12969306912339557,0.13508609802557206,0.13552884137974278,0.12632327542582458
0.30500006675720215,black.png,0.11224151995676994,0.13679640880780325,0.1339582737038462,0.1348917272557887,0.13466137017743232,0.13318385281370315,0.13571529963198894,0.13484143583076427,0.13485985366819545,0.13549909120787276,0.13103768301459348,0.13630011067391762,0.12979208735133257,0.13509454698497617,0.1355558422870448,0.12556396431493333
0.30500006675720215,black.png,0.11218568529912058,0.1367934360257907,0.13395659732301204,0.13488846390109824,0.13467784341309588,0.13318689265094907,0.13572050758844703,0.1348552715605821,0.13483911124934092,0.13547653829771736,0.13097453933650724,0.13627610490037262,0.12973553743786065,0.1351018336536686,0.13553465283330116,0.12626006469250498
0.30500006675720215,black.png,0.11217202838325839,0.1367802261448176,0.13394148754376026,0.1349136319653549,0.13465801741576403,0.13317070998796343,0.13570220150973814,0.13483595965337272,0.13484789548491186,0.13548780357692283,0.1309879056796915,0.13628835365633413,0.12972956952209108,0.13508220882203684,0.13554131365314884,0.1259366125984922
0.30500006675720215,black.png,0.11225034889582979,0.13680105797064995,0.13396410750914903,0.13487326471486863,0.13467180844209295,0.13319205590391825,0.13572408386755988,0.13485071180471322,0.13485136000530243,0.1354878706321562,0.13101948869460686,0.13628748193830037,0.12979083565364308,0.1351034876827583,0.13554734862415177,0.12581946710580194
0.30500006675720215,black.png,0.11213192935370557,0.13677539816801526,0.13393728541580266,0.13490871458157475,0.13466449942165606,0.1331693688832961,0.13570144155042665,0.13484005002260804,0.1348345738452165,0.13547305142558233,0.13094284456286961,0.1362727074352154,0.12967766877146586,0.13508506984532712,0.13552712029541972,0.12635108099592698
0.30500006675720215,black.png,0.11224556562251635,0.13679225138333456,0.1339539151136774,0.1348906320203104,0.13465888913379778,0.13318096943866842,0.135711276317987,0.13483799366211816,0.13485844550829476,0.1354952690595709,0.13101425838640432,0.13629669085701596,0.12976446059518582,0.1350923341622751,0.1355524895253765,0.12565507002533316
0.3059999942779541,black.png,0.11219172027012352,0.13679169258972318,0.13395463036949998,0.13488680987200855,0.13467710580552886,0.13318584211895967,0.13571880885586843,0.13485303638613658,0.13483893243538528,0.13547407960582727,0.13095276873740777,0.13627433911256065,0.1297107046497708,0.13509935261003406,0.13553266352804463,0.12627718612875774
0.3059999942779541,black.png,0.11217113431348018,0.13677895209538365,0.13393949823850373,0.13490996627926424,0.1346570786424969,0.13316941358678502,0.13570030161145943,0.1348331209818269,0.13484854368550106,0.13548635071353324,0.13097022544982737,0.13628792897318948,0.12970851417881418,0.1350822758772702,0.13554039723162617,0.1259685755930633
0.3059999942779541,black.png,0.11225177940747492,0.13680114737762777,0.13396383928821556,0.13487301884567962,0.13467230018047097,0.1331922794213628,0.13572403916407097,0.13484959421749046,0.1348517176332137,0.1354858142716663,0.13100844693284594,0.13628669962724443,0.12978173849364977,0.1351022806885577,0.1355464322026291,0.12582532326284923
0.30699992179870605,black.png,0.11213483508048476,0.13677374413892557,0.13393529611054614,0.1349038866047724,0.1346633371309444,0.1331684748135179,0.13569987692831478,0.13483770308944024,0.13483613846732836,0.13547300672209342,0.13093081932435266,0.13627333328406016,0.1296790545796221,0.13508661211569453,0.13552756733030882,0.1263294668590387
0.30699992179870605,black.png,0.11224362102074874,0.13679486653743583,0.13395574795672274,0.13489132492438852,0.1346612360669656,0.1331848809939481,0.1357144726174441,0.13484288869415387,0.13485866902573931,0.13549573844620447,0.13099552762455077,0.13629742846458298,0.1297631194905185,0.1350945246332317,0.1355526906910766,0.12562485046682959
0.30699992179870605,black.png,0.11219317313351311,0.13679070911296715,0.133952618712499,0.13488394884871827,0.1346747812241055,0.1331855291945373,0.13571780302736794,0.13485341636579232,0.1348369207783843,0.1354727161494155,0.13093622844651084,0.1362727074352154,0.12970737423984696,0.1350988832234005,0.1355306295192992,0.1262448431545309
0.3080000877380371,black.png,0.11217068727859107,0.13677740982501624,0.1339364584012578,0.13490811108447445,0.1346541282122288,0.1331677819094398,0.13569820054748064,0.13483323274054917,0.1348451685720883,0.13548395907687652,0.13094782900188315,0.13628500089466583,0.12969452198678516,0.13508093477260288,0.13553751385659144,0.1259513200463438
0.3080000877380371,black.png,0.11225126531735245,0.13679920277586016,0.13396033006433608,0.13487132011310102,0.13466791923855773,0.13318955250853926,0.1357212675477585,0.1348489683686457,0.13485084591517996,0.13548518842282156,0.130996667563518,0.1362859620196774,0.129775122377291,0.1351016771914574,0.1355458287055288,0.12579816589333603
0.3080000877380371,black.png,0.11213105763567181,0.13677381119415893,0.13393408911634555,0.13490330545941656,0.13466134782568787,0.13316771485420642,0.13569985457657033,0.13483848540049617,0.13483171282192621,0.13547003394008086,0.13092158805389262,0.1362699134671585,0.12967503126562013,0.13508321465053733,0.13552403575468489,0.12631538526003186
0.3080000877380371,black.png,0.1122369378491566,0.1367898373949334,0.13394973533746427,0.13488716749991983,0.13465584929655186,0.13317951657527882,0.13570910819877482,0.13483714429582885,0.1348537739937036,0.13549140220778014,0.1309941194646501,0.13629255578429172,0.1297638123945966,0.13508931667677362,0.13554797447299652,0.12562205649877267
0.30900001525878906,black.png,0.11218389715956416,0.1367868869646653,0.13394808130837457,0.1348804843283277,0.13467064615138127,0.13318123765960188,0.13571369030638816,0.13484849898201215,0.13483428327253857,0.13547043627148106,0.13094454329544822,0.13627049461251434,0.12972172405978727,0.13509599984836576,0.13552870726927604,0.1262517945470565
0.4010000228881836,black.png,0.11216161247034222,0.13677566638894872,0.13393507259310158,0.13490871458157475,0.13465354706687296,0.1331665749152392,0.13569732882944688,0.1348320257463486,0.13484498975813267,0.13548413789083216,0.1309562556095428,0.13628524676385484,0.12971092816721536,0.13508048773771378,0.135537983243225,0.12598522764268252
0.4010000228881836,black.png,0.11224281635794835,0.1367978393194484,0.13395907836664658,0.1348729741421907,0.13466740514843525,0.13318845727306095,0.1357203734779803,0.1348471802290893,0.13484943775527927,0.13548485314665473,0.13099930506936372,0.13628535852257712,0.1297852700692737,0.1351008278251681,0.13554520285668406,0.1258228422192147
0.40199995040893555,black.png,0.11212296630417899,0.13677436998777032,0.13393482672391258,0.13490676997980713,0.1346631359652443,0.13316836305479562,0.135700770998093,0.1348401170778414,0.1348341715138163,0.13547197854184848,0.13092373382136033,0.1362722604003263,0.12968457546050255,0.1350862768395277,0.13552689677797516,0.12634343669932327
0.40199995040893555,black.png,0.11222176101467145,0.1367907314647116,0.13395083057294258,0.13489105670345505,0.13465741391866373,0.13318016477586803,0.13571118691100917,0.13483783719990697,0.13485551742977112,0.13549330210605884,0.13099235367683812,0.13629488036571508,0.12977364716215695,0.1350916859616859,0.13555041081314215,0.12563736744372456
0.40199995040893555,black.png,0.11217833157519479,0.1367896362292333,0.1339513223113206,0.13488459704930747,0.13467399891304957,0.13318456806952572,0.13571778067562348,0.13485265640648084,0.1348370772405955,0.13547264909418213,0.13094637613849355,0.13627268508347096,0.12972787078951248,0.13509879381642267,0.1355310318506994,0.1262565554686255
0.40199995040893555,black.png,0.11215863968832966,0.13677521935405962,0.13393453615123466,0.13490967570658632,0.13465350236338405,0.13316668667396148,0.13569784291956935,0.1348318692841374,0.13484333572904297,0.13548275208267593,0.1309491030513171,0.13628379390046524,0.12971314098991643,0.13507990659235794,0.13553603864145738,0.12599367660208663
0.40199995040893555,black.png,0.11224634793357229,0.13679694524967018,0.13395822900035728,0.13487161068577894,0.1346662875612125,0.13318899371492787,0.13572039582972475,0.13484751550525612,0.13484794018840077,0.13548324382105395,0.13099613112165107,0.1362838162522097,0.12979061213619852,0.1350997772931787,0.13554299003398299,0.12581872949823492
0.4029998779296875,black.png,0.11213132585660528,0.13677141955750222,0.13393183159015556,0.13490337251464993,0.1346601855349762,0.1331663290460502,0.13569896050679212,0.13483761368246241,0.13483157871145948,0.13546987747786968,0.13091743062942393,0.13627020403983642,0.12968508955062502,0.13508455575520464,0.13552401340294043,0.1263494269668373
0.4029998779296875,black.png,0.11224125173583648,0.1367889880286441,0.13394897537815278,0.1348897826540211,0.13465470935758464,0.13317819782235596,0.1357091752540082,0.13483629492953955,0.13485368458672578,0.13549068695195757,0.13099065494425952,0.13629253343254727,0.1297645723539081,0.1350883332000176,0.13554712510670722,0.12564592816185094
0.4029998779296875,black.png,0.11219782229635981,0.1367871328338543,0.13394879656419714,0.13488095371496125,0.13467042263393672,0.13318210937763564,0.13571505376279994,0.13484961656923491,0.13483569143243926,0.1354708609546257,0.13094349276345882,0.1362712098683369,0.12971787955974096,0.1350971844908219,0.13552904254544287,0.1262534038726573
0.4029998779296875,black.png,0.11217996325254002,0.13677611342383783,0.13393554197973515,0.13490965335484187,0.13465363647385079,0.1331673795780396,0.13569790997480272,0.13483269629868225,0.13484525797906613,0.13548393672513206,0.1309503100455177,0.13628509030164365,0.12969863470776494,0.1350810241795807,0.1355369327112356,0.12598976504680695
0.4029998779296875,black.png,0.11226919141640561,0.13679859927875987,0.13395992773293589,0.13487299649393517,0.13466724868622407,0.13318964191551708,0.13572070875414713,0.1348480742988675,0.13485051063901313,0.13548523312631047,0.13099749457806284,0.1362859620196774,0.12977693286859188,0.13510089488040147,0.13554509109796178,0.12579727182355782
0.8669998645782471,black.png,0.11214542980735658,0.13677401235985903,0.13393460320646802,0.13490542887513982,0.13466262187512182,0.13316809483386216,0.13570023455622607,0.1348384183452628,0.13483238337425987,0.1354695198499584,0.13092833828071812,0.13626982406018068,0.1296807980156896,0.13508388520287098,0.1355239239959626,0.12634097800743319
0.8680000305175781,black.png,0.112243486910282,0.13678695401989865,0.13394754486650765,0.13488904504645408,0.1346534800116396,0.13317678966245527,0.13570709654177385,0.1348345738452165,0.13485225407508064,0.13548863059146768,0.13100469183977745,0.1362906111825241,0.1297753235429911,0.13508701444709473,0.13554560518808426,0.12564492233335045
0.8680000305175781,black.png,0.11219400014805796,0.1367856799704647,0.13394803660488566,0.13488061843879443,0.13467026617172553,0.13318105884564624,0.13571418204476618,0.13484814135410086,0.1348348197144055,0.1354685140214579,0.13096226822880128,0.13626928761831375,0.12973249760061473,0.13509474815067626,0.13552779084775338,0.12624996170401118
0.8680000305175781,black.png,0.11217593993853807,0.13677338651101428,0.13393375384017872,0.1349087816368081,0.13465216125871673,0.13316501029312733,0.1356963677044353,0.13483010349632543,0.13484425215056564,0.13548179095766436,0.13096796792363738,0.1362837715487208,0.1297113081468711,0.13507943720572438,0.13553574806877947,0.12601142388718414
0.8680000305175781,black.png,0.1122642963843699,0.13679781696770393,0.13396044182305836,0.13487435995034694,0.13466731574145743,0.1331892842876058,0.13572131225124742,0.13484899072039017,0.13485169528146926,0.13548538958852166,0.13102127683416329,0.13628714666213354,0.12979564127870097,0.13510136426703503,0.13554591811250663,0.12582867602451753
0.8680000305175781,black.png,0.11215866204007412,0.1367740347116035,0.13393567609020188,0.13490585355828447,0.1346629347995442,0.13316869833096245,0.13570130743995992,0.13483868656619627,0.1348342162173052,0.13547019040229205,0.13094367157741446,0.13627145573752592,0.12968857642276005,0.13508464516218247,0.13552551096981894,0.12636370973154423
0.8689999580383301,black.png,0.1122628435209803,0.1367910890926229,0.13395183640144306,0.1348929789534782,0.13465777154657502,0.13318079062471277,0.1357109186900757,0.13483785955165142,0.13485634444431596,0.13549249744325845,0.13101164323230305,0.13629508153141517,0.12977170256038933,0.13509099305760777,0.1355500308334864,0.12568781533096018
0.8689999580383301,black.png,0.11222167160769363,0.13679070911296715,0.13395252930552118,0.13488397120046272,0.13467440124444977,0.13318543978755948,0.1357178253791124,0.13485216466810282,0.13483958063597448,0.13547325259128243,0.1309652633625583,0.13627469674047193,0.12973374929830422,0.13510011256934554,0.13553319996991156,0.1262707488263546
0.8689999580383301,black.png,0.11219961043591624,0.13677828154305,0.13393784420941404,0.13491240261940987,0.13465692218028572,0.13316943593852948,0.13570039101843726,0.13483399269986066,0.13484668849071127,0.13548398142862098,0.1309684596620154,0.13628649846154434,0.12971356567306108,0.13508236528424802,0.13553876555428093,0.12603902829158645
0.869999885559082,black.png,0.11228848097187054,0.1368006332875053,0.13396209585214805,0.13487601397943663,0.13466964032288078,0.13319154181379578,0.13572298863208157,0.13484894601690126,0.13485209761286945,0.1354855684024773,0.13101367724104848,0.13628779486272274,0.12978985217688704,0.13510152072924622,0.1355466333683292,0.12584260116131318
0.869999885559082,black.png,0.11216755803436733,0.13677495113312615,0.13393569844194633,0.13490609942747347,0.13466367240711122,0.13316986062167413,0.13570168741961566,0.13484043000226378,0.1348344173830053,0.1354702127540365,0.13093772601338935,0.13627223804858185,0.12968830820182659,0.1350860309703387,0.13552633798436378,0.12638590501378835
0.8710000514984131,black.png,0.11226691153847117,0.13679086557517833,0.13395123290434277,0.13489320247092276,0.13465681042156344,0.13318083532820169,0.13571029284123096,0.1348377254411847,0.1348544221942928,0.1354901728618351,0.13100688231073407,0.13629394159244795,0.12977255192667864,0.135089383732007,0.13554815328695216,0.12571123995914935
0.8710000514984131,black.png,0.11222755011648537,0.136789278601322,0.1339511211456205,0.1348824289300953,0.13467156257290394,0.13318438925557008,0.13571614899827825,0.13485008595586848,0.1348377701446736,0.1354718220796373,0.13096568804570294,0.13627420500209392,0.12973777261230618,0.13509946436875633,0.13553154594082187,0.12629853204471256
0.871999979019165,black.png,0.11220318671502909,0.1367768733831493,0.1339366595669579,0.13491251437813215,0.13465468700584018,0.13316903360712928,0.13569898285853657,0.13483426092079412,0.1348439168743988,0.1354817686059199,0.13096848201375985,0.13628488913594355,0.12971743252485185,0.13508153826970318,0.1355364856763465,0.12608368707700815
0.872999906539917,black.png,0.11228713986720322,0.13679779461595948,0.1339595254015357,0.1348752763718696,0.13466619815423467,0.13318984308121717,0.13572075345763604,0.13484836487154542,0.1348508682669244,0.13548454022223236,0.13102044981961844,0.13628734782783364,0.12980315146483795,0.13510181130192414,0.13554614162995118,0.1258712560977049
0.872999906539917,black.png,0.11217193897628057,0.1367745264499815,0.13393534081403505,0.1349065911658515,0.13466331477919993,0.1331699723803964,0.13570179917833794,0.13484058646447497,0.1348333668510159,0.13546934103600275,0.13094668906291593,0.13627163455148156,0.12970013227464344,0.1350863215430166,0.13552604741168586,0.12642110901130546
0.874000072479248,black.png,0.11226966080303917,0.1367894797670221,0.1339497129857198,0.1348931801191783,0.1346559834070186,0.1331795836305122,0.13570933171621938,0.13483718899931776,0.13485511509837092,0.1354908657659132,0.13101535362188263,0.13629467920001498,0.12978196201109432,0.1350902778017852,0.13554949439161948,0.12574995318054594
0.874000072479248,black.png,0.11222795244788557,0.13678977033970002,0.1339514117182984,0.13488397120046272,0.1346726801601267,0.13318409868289216,0.13571715482677874,0.1348505776942465,0.13483620552256173,0.13546958690519176,0.13097319823183992,0.13627174631020383,0.12974754032463315,0.13509684921465506,0.13553020483615455,0.1263161675710878
0.874000072479248,black.png,0.11220106329930583,0.1367744817464926,0.13393399970936773,0.13491135208742047,0.13465316708721722,0.13316628434256128,0.13569719471898015,0.13483030466202553,0.13484398392963218,0.13548049455648595,0.13097299706613982,0.13628403976965425,0.1297210088039647,0.1350803312755026,0.1355361280484352,0.1261146665948232
0.874000072479248,black.png,0.11228499409973551,0.13679777226421502,0.13395995008468034,0.13487690804921484,0.1346663769681903,0.1331897760259838,0.13572175928613653,0.1348487224994567,0.13485169528146926,0.13548438376002117,0.13102927875867829,0.13628788426970057,0.129798882281647,0.13510107369435712,0.1355460298712289,0.1258894504176915
0.875,black.png,0.1121647193628215,0.1367741241185813,0.13393587725590198,0.13490775345656317,0.13466291244779974,0.13316981591818522,0.13570390024231674,0.1348400276708636,0.13483423856904966,0.13546905046332483,0.1309472031530384,0.13627190277241502,0.12967916633834436,0.1350854274732384,0.13552535450760775,0.1264402421045592
0.875,black.png,0.11226342466633614,0.13678918919434419,0.1339498247444421,0.13489606349421304,0.13465546931689612,0.13317936011306764,0.13571214803602075,0.1348352220458057,0.13485605387163804,0.13549140220778014,0.13100817871191248,0.1362949697726929,0.12974369582458684,0.13508971900817382,0.13554862267358572,0.1257662699539983
0.875,black.png,0.1122238844303947,0.1367903291333114,0.13395223873284326,0.13488774864527567,0.13467245664268215,0.13318664678176007,0.1357216698791587,0.1348525222960141,0.13483830658654053,0.13547164326568165,0.13095283579264114,0.1362727074352154,0.1296927561989732,0.13509810091234456,0.13553056246406583,0.12631824628332214
0.875,black.png,0.11219073679336748,0.13677296182786963,0.1339324127355114,0.1349144366281553,0.1346518259825499,0.13316621728732791,0.13570018985273716,0.13483131049052602,0.13484409568835445,0.13548078512916387,0.1309463090832602,0.13628207281614219,0.12965967561717934,0.13507919133653537,0.1355343846123677,0.12612237794666029
0.875999927520752,black.png,0.11226872202977205,0.13679660997350335,0.13395796077942382,0.13488035021786096,0.134665281732712,0.13318982072947272,0.13572455325419344,0.13484796254014522,0.13485270110996975,0.1354855684024773,0.1309942088716279,0.1362858726126996,0.1297366103215945,0.13509955377573415,0.13554531461540634,0.12587080906281578
0.875999927520752,black.png,0.11215249295860445,0.13677184424064687,0.13393185394190002,0.13491005568624206,0.13466052081114302,0.13316818424083998,0.13570369907661664,0.13483830658654053,0.13483388094113838,0.13546907281506929,0.13091396610903336,0.13626808062411316,0.12963327820697762,0.1350831252435595,0.13552396869945152,0.12642940150849838
0.875999927520752,black.png,0.11224759963126178,0.1367860823018649,0.13394515322985093,0.13489747165411373,0.13465200479650555,0.133176677903733,0.13571024813774205,0.13483363507194937,0.134857082051883,0.1354925644984918,0.1309843070488342,0.13629268989475846,0.12971521970215077,0.13508759559245057,0.13554882383928582,0.12574110188974164
0.875999927520752,black.png,0.11220696415984203,0.13678952447051101,0.13395029413107565,0.13488736866561993,0.134671026131037,0.13318497040092592,0.1357208205128694,0.1348505776942465,0.13483996061563022,0.13547307377732679,0.13094673376640484,0.136271411034037,0.12968276496920167,0.13509680451116615,0.1355316800512886,0.1262917147626537
0.875999927520752,black.png,0.11217070963033553,0.13677320769705864,0.13393142925875537,0.13491506247700005,0.13465180363080545,0.13316501029312733,0.13569922872772558,0.13482938824050286,0.13484534738604395,0.13548147803324198,0.13093949180120132,0.1362807093597304,0.12965305950082057,0.13507695616208984,0.1355350775164458,0.12610199315571705
0.875999927520752,black.png,0.11224071529396955,0.1367947324269691,0.13395487623868899,0.13487710921491494,0.13466306891001092,0.13318651267129333,0.13572073110589158,0.13484246401100922,0.13485279051694757,0.13548579191992186,0.13099054318553724,0.13628450915628781,0.1297397619175627,0.13509756447047763,0.13554515815319515,0.12583882371650024
0.877000093460083,black.png,0.1121158137459533,0.13677296182786963,0.13393250214248922,0.13490860282285247,0.13466190661929925,0.13316894420015146,0.1357030732277719,0.1348378148481625,0.13483649609523965,0.13547217970754857,0.13090880285606418,0.13627006992936969,0.12963368053837782,0.13508531571451612,0.13552656150180833,0.12641491757809134
0.877000093460083,black.png,0.11220526542726343,0.13678715518559875,0.13394609200311805,0.13489684580526898,0.13465341295640623,0.1331776837322335,0.13570935406796383,0.13483365742369383,0.1348568808861829,0.1354929221264031,0.13096962195272707,0.1362920640459137,0.12970594372820182,0.13508665681918344,0.13554844385963008,0.12572098531973186
0.878000020980835,black.png,0.11217104490650236,0.13678952447051101,0.13395000355839773,0.13488482056675202,0.1346707355583591,0.13318490334569255,0.1357189206145907,0.1348477166709562,0.13483960298771894,0.13547298437034896,0.13092762302489555,0.1362708075369367,0.1296793004488111,0.13509626806929922,0.13553118831291058,0.12626321628847317
0.878000020980835,black.png,0.11213199640893894,0.13677188894413578,0.13393057989246607,0.13491251437813215,0.13465082015404942,0.1331649208861495,0.13569699355328005,0.13482878474340257,0.1348457273656997,0.13548264032395366,0.13092728774872872,0.13628149167078635,0.12965516056479937,0.1350784760807128,0.13553577042052392,0.12609260542304582
0.878000020980835,black.png,0.11221407201457882,0.13679580531070296,0.13395673143347878,0.1348769751044482,0.1346640300350225,0.13318816670038303,0.13572128989950297,0.13484405098486554,0.134852075261125,0.13548527782979938,0.1309805072522768,0.13628410682488762,0.12974483576355406,0.1350965362902327,0.13554500169098396,0.12582217166688103
0.878000020980835,black.png,0.11209471369918748,0.1367701231563238,0.13393064694769943,0.13490397601175022,0.13465973850008708,0.13316630669430574,0.1357001675009927,0.13483549026673916,0.13483419386556075,0.13546922927728047,0.13090292434727244,0.13626743242352396,0.12964170481463727,0.1350829240778594,0.13552434867910726,0.12639354931039207
0.878000020980835,black.png,0.11218765225263265,0.13678404829311946,0.13394425916007272,0.13489427535465662,0.1346522283139501,0.13317515798511004,0.1357073200592184,0.134830818752148,0.13485493628441528,0.13549010580660173,0.13097029250506073,0.136289672409257,0.12972319927492132,0.13508475692090474,0.13554694629275157,0.12571984538076464
0.878000020980835,black.png,0.11215624805167294,0.13678556821174243,0.13394770132871883,0.13488079725275007,0.1346688356600804,0.1331819752671689,0.13571648427444508,0.134846576731989,0.1348381277725849,0.13547130798951482,0.1309368542953556,0.1362692652665693,0.12969834413508702,0.13509506107509864,0.1355303836501102,0.12626343980591773
0.878000020980835,black.png,0.11211851830703239,0.13676918438305669,0.1339294623052433,0.134910592128109,0.13465023900869358,0.13316313274659308,0.13569558539337936,0.13482710836256842,0.13484268752845377,0.1354796675419411,0.13093166869064196,0.13627854124051825,0.12966881748066156,0.13507588327835598,0.1355331776181671,0.12609790278648172
0.878000020980835,black.png,0.11220265027316216,0.13679336897055733,0.13395568090148938,0.13487538813059188,0.13466309126175538,0.13318675854048234,0.13571934529773536,0.13484163699646437,0.1348531257931144,0.13548688715540017,0.13098602813315727,0.13628517970862147,0.12975424584796974,0.13509734095303308,0.13554616398169564,0.12581557790226672
0.8789999485015869,black.png,0.11208546007698299,0.13676981023190143,0.13393178688666665,0.1349045348053616,0.13466110195649886,0.13316749133676187,0.1357009721637931,0.1348361161155839,0.13483399269986066,0.13546983277438077,0.130908400524664,0.13626734301654614,0.12965728398052262,0.13508370638891534,0.13552425927212944,0.12639866785987233
0.8789999485015869,black.png,0.11217249776989195,0.1367831318715968,0.13394450502926172,0.13489485650001246,0.13465269770058366,0.1331756273717436,0.13570718594875167,0.13483260689170443,0.13485580800244903,0.1354919162979026,0.13097129833356122,0.1362909241069465,0.12973079886803612,0.13508629919127216,0.13554754978985187,0.12572418161918897
0.8789999485015869,black.png,0.11213715966190811,0.13678610465360935,0.13394931065431961,0.1348822277643952,0.13467051204091454,0.13318336107532514,0.13571760186166784,0.1348467778976891,0.13483839599351835,0.13547215735580412,0.13093511085928808,0.13626973465320286,0.1297020545246666,0.13509544105475438,0.13553040600185465,0.1262479947504991
0.8789999485015869,black.png,0.11209659124572173,0.13676889381037877,0.13392977522966568,0.13491137443916493,0.13465088720928278,0.1331632221535709,0.1356955630416349,0.13482684014163496,0.1348429781011317,0.13548002516985239,0.13092342089693795,0.13627845183354043,0.1296651964980598,0.1350759279818449,0.135532730583278,0.12608393294619716
0.8789999485015869,black.png,0.11218666877587662,0.1367913796653008,0.13395402687239968,0.1348746281712804,0.13466163839836578,0.13318501510441483,0.1357176242134123,0.13484005002260804,0.13485129295006906,0.13548489785014364,0.1309740028946403,0.13628289983068703,0.12974575218507672,0.13509483755765408,0.13554332531014981,0.12578989574788757
0.8799998760223389,black.png,0.11206992561458655,0.13676849147897857,0.13392997639536577,0.13490232198266053,0.13465940322392025,0.13316545732801643,0.13569878169283647,0.13483405975509402,0.13483200339460413,0.1354681116900577,0.1308935366146012,0.13626517489733397,0.12963756974191304,0.13508066655166942,0.13552090651046114,0.12637195752524824
0.8799998760223389,black.png,0.1121701731884686,0.13678214839484076,0.13394220279958283,0.13489320247092276,0.13464979197380447,0.13317361571474262,0.1357042131667391,0.13482903061259158,0.13485131530181352,0.13548822826006748,0.13094476681289277,0.1362865655167777,0.1297012051583773,0.13508135945574754,0.1355417383362935,0.125698164188643
0.8799998760223389,black.png,0.11214558626956776,0.13678346714776363,0.13394519793333984,0.13487715391840385,0.1346652370292231,0.13317924835434536,0.1357125280156765,0.13484355924648753,0.13483504323185005,0.1354697210156585,0.1309259466440614,0.1362668065746792,0.12969479020771862,0.13509255767971964,0.1355262262256415,0.12622680529675548
0.8810000419616699,black.png,0.11209869230970053,0.1367673291882669,0.13392798709010925,0.1349086922298303,0.13464885320053735,0.13316116579308102,0.13569238909392226,0.1348260131270901,0.13483998296737468,0.13547832643727378,0.13091217796947693,0.1362762613625838,0.12965815569855638,0.1350744304149664,0.1355293331181208,0.12608022255661758
0.8810000419616699,black.png,0.11219576593586993,0.13678885391817736,0.13395174699446524,0.1348720800724125,0.13465904559600897,0.13318275757822484,0.1357144279139552,0.1348398712086524,0.13484910247911244,0.13548353439373187,0.13097932260982068,0.1362815140225308,0.12976394650506334,0.13509345174949786,0.13554144776361557,0.12578314552106207
0.8810000419616699,black.png,0.11209440077476511,0.13676726213303353,0.13393033402327706,0.1349007350088042,0.13466005142450946,0.13316516675533852,0.135698267602714,0.13483488676963887,0.1348329645196157,0.13546858107669127,0.13091367553635544,0.13626606896711219,0.1296740477888641,0.1350832817057707,0.13552253818780638,0.12637461738283842
0.8810000419616699,black.png,0.11218117024674061,0.13678036025528434,0.1339437674216947,0.13489342598836732,0.13465229536918347,0.13317415215660955,0.13570486136732832,0.13483169047018176,0.13485390810417033,0.13548947995775698,0.1309741146533626,0.1362887112842454,0.12974673566183276,0.1350849804383493,0.13554471111830604,0.12571604558420724
0.8810000419616699,black.png,0.11216100897324192,0.1367831318715968,0.13394832717756358,0.13487751154631514,0.13466872390135812,0.13318134941832416,0.1357144726174441,0.13484554855174405,0.13483911124934092,0.1354721126523152,0.130937904827345,0.13626998052239186,0.1297167619725182,0.13509667040069942,0.13552993661522109,0.12622150793331957
0.8810000419616699,black.png,0.11212513442339116,0.1367687820516565,0.13393167512794438,0.13491005568624206,0.13465258594186139,0.1331638703541601,0.13569549598640154,0.13482900826084712,0.13484304515636505,0.1354790193413519,0.1309273548039621,0.13627822831609587,0.12967458423073103,0.1350771796795344,0.1355315235890774,0.12608755392879892
0.8819999694824219,black.png,0.11222397383737252,0.13679180434844546,0.13395615028812294,0.13487465052302486,0.1346623760059328,0.133184925697437,0.13571724423375656,0.13484168169995328,0.13485404221463707,0.13548614954783314,0.13098989498494804,0.13628573850223286,0.12977103200805568,0.1350974303600109,0.13554495698749505,0.12577639529423656
0.8819999694824219,black.png,0.11210957760925026,0.13676981023190143,0.13393375384017872,0.13490221022393825,0.13466186191581034,0.13316711135710613,0.1357008157015819,0.13483761368246241,0.13483443973474976,0.13546820109703553,0.13091360848112207,0.13626689598165703,0.1296740477888641,0.13508386285112653,0.13552251583606192,0.12636129574314306
0.8819999694824219,black.png,0.1121990292905604,0.13678065082796226,0.13394307451761658,0.1348933812848784,0.13465115543021625,0.13317218520309748,0.13570360966963882,0.1348290753160805,0.134854824525693,0.1354887199984455,0.13097051602250528,0.13628877833947878,0.12974090185652992,0.13508475692090474,0.13554417467643912,0.12570428856662375
0.8849999904632568,black.png,0.11217348124664799,0.13678451767975303,0.13394879656419714,0.13487856207830454,0.1346688356600804,0.1331813270665797,0.13571518787326667,0.1348451238685994,0.1348391783045743,0.1354708162511368,0.13093553554243273,0.13626935467354712,0.1297158008475066,0.1350955304617322,0.13552895313846505,0.12619432821206192
0.8849999904632568,black.png,0.11213791962121959,0.13676755270571145,0.13392930584303211,0.134908334601919,0.1346507307470716,0.13316194810413695,0.13569370784684512,0.13482670603116823,0.1348423746040314,0.13547814762331814,0.13092737715570654,0.13627749070852885,0.12967516537608686,0.13507796199059033,0.135530227187899,0.12607293588792515
0.8849999904632568,black.png,0.11223452386075543,0.13678930095306646,0.13395304339564365,0.13487310825265744,0.13465960438962035,0.13318295874392494,0.13571415969302172,0.1348409664441307,0.13485196350240272,0.13548462962921018,0.13098763745875805,0.1362839727144209,0.12976343241494087,0.1350964245315104,0.13554269946130507,0.12574778506133377
1.2000000476837158,blue.png,0.11212225104835642,0.13676788798187828,0.13393122809305527,0.13489955036634807,0.13465976085183154,0.13316514440359406,0.1356978205678249,0.13483479736266105,0.13483285276089343,0.13546735173074623,0.13091718476023492,0.13626582309792318,0.1296700021231177,0.1350828793743705,0.13552099591743896,0.12633773700448717
1.2009999752044678,blue.png,0.11220345493596255,0.13677857211572791,0.13394090639840442,0.13489177195927762,0.13464918847670418,0.13317030765656324,0.13570155330914893,0.13482753304571307,0.1348529246274143,0.13548858588797877,0.13097509813011862,0.13628819719412294,0.12973969486232934,0.13508370638891534,0.1355428335717718,0.1256836579064915
1.2009999752044678,blue.png,0.11217821981647251,0.1367824836710076,0.13394649433451825,0.13487596927594772,0.13466604169202348,0.1331788236712007,0.1357125727191654,0.13484239695577585,0.1348382171795627,0.13547110682381472,0.13094644319372692,0.1362692652665693,0.12972118761792034,0.13509445757799834,0.13552817082740912,0.12616149349945707
1.2009999752044678,blue.png,0.11214192058347709,0.13676594338011067,0.1339276071104535,0.13490661351759595,0.13464905436623745,0.13315973528143588,0.13569153972763295,0.1348226156619329,0.13484145818250873,0.13547808056808477,0.13093618374302193,0.136276909563173,0.129681848547679,0.13507635266498955,0.1355295342838209,0.12605174643418152
1.2009999752044678,blue.png,0.11223566379972265,0.13678813866235479,0.13395163523574297,0.13487310825265744,0.13465844209890868,0.13318103649390178,0.13571315386452124,0.1348381724760738,0.13485073415645768,0.13548364615245415,0.1309984109995855,0.13628267631324248,0.12977568117090238,0.13509461404020953,0.1355417383362935,0.1257072613486363
1.2009999752044678,blue.png,0.11212334628383473,0.13676598808359958,0.13392930584303211,0.134897829282025,0.13465803976750848,0.13316299863612635,0.1356963677044353,0.13483269629868225,0.13483215985681532,0.13546618944003455,0.130927153638262,0.13626454904848923,0.12968638595180343,0.13508216411854793,0.13552014655114966,0.1263066680796943
1.2009999752044678,blue.png,0.11219806816554882,0.13677390060113676,0.1339359666628798,0.13488904504645408,0.1346454333836357,0.13316574790069435,0.13569748529165807,0.13482424733927814,0.13484798489188968,0.13548255091697584,0.13097744506328643,0.1362823633888201,0.12975174245259075,0.13507834197024607,0.13553760326356926,0.12564098842632632
1.2009999752044678,blue.png,0.11217421885421501,0.13677752158373851,0.1339420686891161,0.13487221418287923,0.13466166075011024,0.13317424156358737,0.13570801296329651,0.13483763603420687,0.13483598200511718,0.13546833520750226,0.13095046650772887,0.13626667246421248,0.1297364091558944,0.1350921777000639,0.1355258238942413,0.12611643238263517
1.2019999027252197,blue.png,0.11213137056009419,0.13676140597598624,0.13392398612785175,0.13490375249430567,0.13464563454933579,0.13315696366512342,0.1356885222421315,0.1348222133305327,0.13483794895862924,0.1354745713442053,0.1309364519639554,0.13627357915324917,0.12969192918442835,0.13507393867658837,0.1355260250599414,0.12602313620127872
1.2019999027252197,blue.png,0.11222728189555191,0.13678433886579738,0.13394805895663012,0.1348710295404231,0.1346549328750292,0.13317844369154497,0.1357093764197083,0.1348348197144055,0.13484753785700057,0.13548105335009733,0.1309883080110917,0.13627990469693002,0.12976910975803252,0.13509106011284114,0.13553831851939183,0.12565066673167546
1.2019999027252197,blue.png,0.11212037350182218,0.13676265767367574,0.13392595308136382,0.13489474474129018,0.13465430702618444,0.13316033877853617,0.13569198676252206,0.13482844946723574,0.1348282259497912,0.135462970788833,0.1309219903852928,0.1362610621763542,0.12967664059122092,0.13507858783943508,0.13551614558889216,0.12627517447175676
1.2019999027252197,blue.png,0.11219473775562498,0.13677115133656875,0.13393397735762327,0.1348881286249314,0.13464190180801175,0.13316416092683803,0.13569411017824531,0.13482129690901004,0.1348450791651105,0.1354805169082304,0.13097728860107524,0.13628012821437457,0.1297477638420777,0.1350765314789452,0.13553480929551234,0.12558732188788913
1.2019999027252197,blue.png,0.11217039670591315,0.13677445939474814,0.13393929707280364,0.13487026958111162,0.1346579280087862,0.13317214049960857,0.13570468255337267,0.13483493147312778,0.13483115402831483,0.1354637083964,0.13095437806300855,0.1362621574118325,0.12974237707166397,0.13508815438606195,0.13552135354535025,0.12606466574247668
1.2019999027252197,blue.png,0.11212265337975662,0.13675655564743944,0.13391940402023841,0.13490037738089292,0.134641521828356,0.133152672130188,0.13568400718975152,0.13481760887117492,0.134833322147527,0.13546978807089186,0.13094011765004607,0.1362691088043581,0.1297048037892346,0.13507089883934245,0.135522225263384,0.1259888933287732
1.2019999027252197,blue.png,0.1122217833664159,0.13677910855759484,0.13394320862808332,0.134867833240966,0.1346501719534602,0.13317361571474262,0.13570490607081723,0.13483119873180374,0.13484295574938723,0.13547604655933934,0.13099559467978414,0.1362756131619946,0.1297877734646527,0.13508741677849492,0.13553445166760106,0.12559536851589304
1.2019999027252197,blue.png,0.11211809362388774,0.13675845554571814,0.13392242150573988,0.13489121316566624,0.13465075309881605,0.13315611429883412,0.13568874575957604,0.13482583431313447,0.1348239120631113,0.1354583663294752,0.13092838298420703,0.13625739649026353,0.1296881964431043,0.1350755256504447,0.13551241284756813,0.12622848167758963
1.2060000896453857,blue.png,0.11219954338068287,0.13676715037431125,0.13393024461629924,0.13488524524989667,0.13463839258413227,0.13315975763318033,0.1356894163119097,0.1348171618362858,0.13484168169995328,0.13547707473958429,0.13098423999360084,0.13627760246725112,0.12975015547873442,0.13507396102833283,0.13553194827222206,0.12554449594551276
1.2060000896453857,blue.png,0.11218295838629704,0.1367724253860027,0.1339377100989473,0.13486863790376638,0.13465580459306295,0.13316986062167413,0.13570179917833794,0.13483367977543828,0.13482954470271405,0.13546198731207695,0.13096251409799028,0.1362611068798431,0.12974257823736407,0.1350867238744168,0.1355198783302162,0.1260236502914012
1.2060000896453857,blue.png,0.11213557268805179,0.13675458869392737,0.13391754882544862,0.1348988798140144,0.13463926430216602,0.13315030284527574,0.1356805203176165,0.13481593249034077,0.13483003644109207,0.13546630119875683,0.13094123523726883,0.13626624778106783,0.12969559487051902,0.1350669202288294,0.13551873839124898,0.12594718497361956
1.2060000896453857,blue.png,0.11223134991304277,0.1367770298453605,0.1339414204885269,0.13486691681944332,0.13464831675867042,0.13317106761587472,0.13570155330914893,0.13482594607185674,0.13484338043253188,0.13547633713201726,0.13100245666533192,0.13627648488002836,0.12979085800538753,0.13508739442675047,0.13553451872283442,0.12556094682943186
1.2060000896453857,blue.png,0.11212991769670459,0.13675841084222923,0.1339225556162066,0.13489235310463346,0.13465082015404942,0.1331575224587348,0.1356886116491093,0.13482757774920198,0.13482082752237648,0.13545608645154075,0.1309371001645446,0.13625511661232909,0.1297077095160138,0.1350742292492663,0.13550966358300012,0.12621667995651722
1.2079999446868896,blue.png,0.11220814880229817,0.13676339528124276,0.1339264671714863,0.13488401590395163,0.13463465984280823,0.13315745540350143,0.13568615295721922,0.1348164689322077,0.1348384183452628,0.13547454899246084,0.1309905655372817,0.13627518847884995,0.12976928857198816,0.13507295519983234,0.13552875197276495,0.12554306543386762
1.2079999446868896,blue.png,0.11219956573242733,0.13676873734816758,0.13393399970936773,0.13486671565374322,0.13465140129940525,0.13316706665361722,0.13569873698934756,0.13483175752541512,0.1348257225544122,0.13545838868121965,0.13097802620864227,0.13625793293213045,0.12977058497316657,0.13508466751392692,0.13551634675459226,0.12602000695705498
1.2089998722076416,blue.png,0.11214605565620132,0.1367524205747152,0.13391553716844765,0.1348990809797145,0.13463729734865396,0.1331486264644416,0.13567973800656055,0.13481544075196275,0.13482878474340257,0.13546480363187832,0.1309617541386788,0.1362651078421006,0.12973593976926084,0.13506801546430772,0.13551835841159324,0.12596499931395044
1.2089998722076416,blue.png,0.11223269101771009,0.13677352062148102,0.13393797831988077,0.13486700622642114,0.13464516516270222,0.13316845246177345,0.1356997651695925,0.13482666132767931,0.13483739016501786,0.1354697210156585,0.13101537597362709,0.13627002522588078,0.1298170318981447,0.1350822758772702,0.13552899784195396,0.1255586222480085
1.2089998722076416,blue.png,0.11212812955714817,0.1367524205747152,0.13391652064520368,0.13488826273539814,0.1346454333836357,0.13315115221156504,0.13568353780311795,0.13482203451657707,0.13481660304267443,0.13545074438461593,0.13094642084198246,0.1362501098215711,0.12971863951905244,0.13506964714165295,0.1355056179172537,0.12620007261038693
1.2089998722076416,blue.png,0.11220857348544282,0.13675905904281843,0.13392197447085077,0.13488135604636145,0.1346313294328844,0.1331526274266991,0.13568215199496172,0.1348121103420389,0.13483399269986066,0.13546938573949166,0.13099749457806284,0.13627009228111414,0.1297722166505118,0.13506750137418524,0.1355242816238739,0.12553171074768432
1.2089998722076416,blue.png,0.11219279315385737,0.13676495990335463,0.1339298199331546,0.13486338524381938,0.1346482273516926,0.1331625292494928,0.13569393136428967,0.13482688484512387,0.1348198663973649,0.13545228665498335,0.13097518753709644,0.13625162974019406,0.12976220306899583,0.1350770232173232,0.13551008826614477,0.12599052500611843
1.2089998722076416,blue.png,0.1121501683771811,0.13674643030720118,0.13390871988638878,0.13489174960753317,0.1346303683078728,0.13314163036842708,0.13567153491634545,0.13480690238558082,0.13482040283923183,0.13545704757655233,0.13095361810369707,0.13625712826933006,0.12970947530382576,0.13505818069674738,0.13550948476904448,0.12594103824389435
1.2089998722076416,blue.png,0.11224232461957033,0.13676746329873363,0.13393165277619992,0.13485893724667278,0.13463763262482079,0.1331612775518033,0.13569149502414404,0.13481825707176412,0.13483055053121454,0.13546404367256684,0.1310161135811941,0.13626450434500031,0.12980060336597005,0.13507485509811104,0.13552224761512846,0.12553680694542013
1.2100000381469727,blue.png,0.11213380690023982,0.1367475702461684,0.13391189383410143,0.1348800819969275,0.1346395772265884,0.1331465701039517,0.13567770399781512,0.1348166700979078,0.13481083629260496,0.13544607287002478,0.13095093589436244,0.13624523714127984,0.12971774544927422,0.1350643721299615,0.13549994057416206,0.1261900366771265
1.2100000381469727,blue.png,0.11220721002903104,0.13675425341776054,0.1339175041219597,0.13487514226140287,0.13462665791829323,0.13314844765048595,0.13567763694258175,0.13480763999314785,0.13482849417072465,0.13546440130047813,0.13099689108096255,0.13626495137988942,0.1297740718453016,0.1350624722316828,0.1355190289639269,0.12553425884655223
1.2100000381469727,blue.png,0.11219701763355942,0.13676156243819743,0.13392660128195302,0.13485808788038348,0.13464449461036856,0.13315969057794697,0.13569093623053266,0.1348227721241441,0.1348190617345645,0.13545179491660533,0.13097594749640792,0.1362510038913493,0.12976374533936325,0.1350765761824341,0.13550955182427785,0.1259821431019477
1.2100000381469727,blue.png,0.11215513046445018,0.13674540212695624,0.13390847401719977,0.1348903861511214,0.13463034595612836,0.13314189858936054,0.13567180313727892,0.13480797526931468,0.1348190617345645,0.13545568412014056,0.13096074831017832,0.13625572010942938,0.12972688731275644,0.1350586724351254,0.13550850129228845,0.12594807904339778
1.2100000381469727,blue.png,0.1122465938027613,0.13676469168242117,0.13392984228489904,0.13485788671468338,0.13463609035445337,0.1331600705576027,0.1356906680095992,0.1348190170310756,0.13482784597013545,0.13546044504170954,0.1310171194096946,0.13626119628682093,0.1298121815695979,0.13507219524052086,0.13551918542613808,0.12552797800636029
1.2100000381469727,blue.png,0.11214440162711163,0.13674459746415585,0.1339097033631448,0.13487849502307117,0.13463761027307633,0.13314355261845023,0.1356755582303474,0.1348139208333398,0.1348093610774709,0.13544350241941241,0.13094769489141642,0.13624318078078995,0.12971354332131663,0.13506233812121607,0.1354980183241389,0.1261740775315854
1.2100000381469727,blue.png,0.11222077753791541,0.1367530687753044,0.13391683356962605,0.13487610338641445,0.134625272110137,0.13314688302837407,0.13567558058209186,0.13480625418499162,0.1348270636590795,0.13546259080917725,0.1309969581361959,0.13626374438568883,0.12976403591204116,0.13506106407178212,0.13551764315577067,0.12552084779987904
1.2100000381469727,blue.png,0.11220890876160965,0.13675841084222923,0.13392423199704076,0.13485650090652715,0.13464116420044472,0.13315631546453421,0.13568758346886436,0.13482082752237648,0.13481383142636197,0.13544611757351369,0.1309829659441669,0.13624597474884687,0.12976499703705274,0.13507134587423156,0.1355047685509644,0.12596383702323877
1.2100000381469727,blue.png,0.11215819265344056,0.13674048474317607,0.13390424953749772,0.1348870333894531,0.13462594266247066,0.133136668281158,0.13566677399477647,0.1348027673128566,0.1348142114060177,0.13545011853577119,0.1309657551009363,0.1362506015599491,0.12972389217899943,0.1350530174437782,0.13550369566723056,0.12594039004330515
1.2109999656677246,blue.png,0.11225025948885196,0.13676145067947515,0.1339265565784641,0.13485636679606042,0.13463305051720745,0.13315633781627867,0.1356864658816416,0.13481378672287306,0.13482639310674585,0.1354586569021531,0.1310228191045307,0.13625969871994242,0.12981571314522183,0.13507004947305315,0.13551829135635987,0.12552100426209023
1.2829999923706055,blue.png,0.1121512189091705,0.13674330106297744,0.13390809403754403,0.13487795858120424,0.13463624681666456,0.13314187623761609,0.1356740606634689,0.13481193152808327,0.1348080646762925,0.13544128959671134,0.13096204471135672,0.1362412585307668,0.1297349562925048,0.13506070644387083,0.13549730306831634,0.12617669268568668
1.2829999923706055,blue.png,0.11222895827638606,0.13675043126945868,0.1339140619533136,0.13487518696489179,0.1346233722118583,0.1331440667085727,0.135674261829169,0.13480395195531272,0.1348251637608008,0.13545977448937588,0.13101215732242552,0.13626121863856538,0.1297899192321204,0.13505856067640312,0.13551610088540325,0.12553059316046156
1.2839999198913574,blue.png,0.11222247627049402,0.13675626507476152,0.13392175095340622,0.13485435513905944,0.13463843728762118,0.13315316386856602,0.1356858623845413,0.13481789944385283,0.13481155154842753,0.1354432565502234,0.130997159301896,0.13624369487091242,0.12978330311576164,0.135068618961408,0.13550280159745234,0.12596263002903818
1.2839999198913574,blue.png,0.11217193897628057,0.1367380707547749,0.13390163438339645,0.1348849770289632,0.13462301458394701,0.13313362844391208,0.13566406943369738,0.13480012980701087,0.1348106127751604,0.13544654225665834,0.1309678114614262,0.13624744996398092,0.12972865310056841,0.1350495752751321,0.13550061112649572,0.12594778847071986
1.2839999198913574,blue.png,0.11226760444254928,0.1367578296968734,0.13392253326446216,0.13485343871753677,0.13462853546482748,0.1331518227638987,0.13568248727112855,0.13480929402223754,0.13482214627529934,0.13545443242245106,0.13102357906384218,0.13625554129547374,0.12981964705224597,0.13506515444101744,0.13551408922840227,0.12552104896557914
1.2839999198913574,blue.png,0.11216100897324192,0.13673880836234192,0.13390257315666357,0.13487351058405764,0.13463124002590657,0.13313693650209146,0.1356693667971333,0.13480569539138024,0.134801806187845,0.13543567930885306,0.13094588440011554,0.13623553648418624,0.1297200029754642,0.1350553196734571,0.1354909775246355,0.12617266937168473
1.2839999198913574,blue.png,0.11223199811363198,0.1367463185484789,0.1339086528311554,0.1348710295404231,0.13461803014493348,0.1331400210428263,0.13566853978258844,0.1347991686819993,0.13481850294095313,0.13545378422186186,0.13098613989187954,0.13625513896407354,0.12975914088000545,0.13505265981586692,0.13550861305101072,0.12553005671859463
1.2850000858306885,blue.png,0.11222502436936192,0.13675069949039215,0.1339157159824033,0.13484796254014522,0.13463204468870696,0.13314844765048595,0.13567913450946026,0.13481168565889426,0.13480527070823559,0.13543684159956473,0.13097974729296533,0.1362376598999095,0.12976168897887336,0.1350623157694716,0.135495470225271,0.12595178943297736
1.2850000858306885,blue.png,0.11216845210414554,0.13673114171399375,0.13389441476993738,0.13487722097363722,0.1346155267495545,0.1331278169903537,0.13565705098593842,0.1347945642226415,0.13480435428671292,0.13543979202983283,0.13096036833052258,0.13624123617902234,0.1297191536091749,0.135044121449485,0.1354935256235034,0.12595860671503623
1.2860000133514404,blue.png,0.11226212826515773,0.13675065478690324,0.13391553716844765,0.1348455261999996,0.13462091351996822,0.1331459666068514,0.13567524530592504,0.13480392960356827,0.1348154631037072,0.135446966939803,0.1310253224999097,0.1362489028273705,0.12981908825863459,0.13505860537989203,0.13550729429808786,0.12551988667486746
1.750999927520752,blue.png,0.11215969022031906,0.13673266163261671,0.13389732049671657,0.1348659333426873,0.13462493683397017,0.13313197441482238,0.13566353299183045,0.134801560318656,0.13479782757733197,0.13543058311111725,0.13095942955725545,0.13623146846669537,0.1297346657198269,0.13505037993793248,0.13548744594901155,0.1261770279618535
1.750999927520752,blue.png,0.11222911473859724,0.13674008241177588,0.13390389190958643,0.13486586628745392,0.13461311276115331,0.13313434369973465,0.13566406943369738,0.13479308900750744,0.13481459138567345,0.1354489115415706,0.13100679290375625,0.13625147327798287,0.12978524771752925,0.13504787654255349,0.13550586378644272,0.12554525590482424
1.750999927520752,blue.png,0.1122226327327052,0.13674698910081257,0.13391312318004647,0.13484583912442197,0.13462880368576094,0.13314453609520627,0.13567683227978136,0.1348078188071035,0.13480352727216807,0.13543514286698613,0.13099512529315058,0.13623649760919782,0.1297825208047057,0.13506050527817073,0.13549500083863744,0.12595659505803525
1.750999927520752,blue.png,0.1121724754181475,0.13672830304244793,0.1338922019472363,0.1348761257381589,0.13461315746464222,0.13312457598740768,0.13565544166033763,0.13479168084760676,0.13479930279246602,0.13543567930885306,0.13097263943822854,0.13623734697548712,0.12973012831570246,0.13504029930118314,0.13548968112345708,0.12597867858155712
1.750999927520752,blue.png,0.11227028665188392,0.1367471679147682,0.13391243027596836,0.1348434698395097,0.13461639846758824,0.13314140685098252,0.13567207135821238,0.13480042037968878,0.13481228915599455,0.13544462000663518,0.1310281164679666,0.1362467570599028,0.12981265095623146,0.13505534202520156,0.13550465679224213,0.12552397704410279
1.750999927520752,blue.png,0.11217140253441364,0.13672951003664852,0.13389437006644847,0.13486264763625236,0.13462064529903475,0.1331278169903537,0.135660761375518,0.13479684410057594,0.13479398307728566,0.13542723034944895,0.13096519630732492,0.13622798159456034,0.1297248086005221,0.13504700482451973,0.13548380261466533,0.12617834671477637
1.750999927520752,blue.png,0.11224359866900428,0.1367368190570854,0.13389989094732893,0.13486215589787434,0.13460806126690641,0.13313058860666616,0.1356614095761072,0.1347897585975836,0.13481119392051624,0.13544562583513567,0.13100120496764242,0.13624767348142547,0.12976070550211732,0.13504474729832974,0.13550224280384096,0.12554610527111354
1.750999927520752,blue.png,0.11223982122419134,0.13674499979555604,0.13390952454918917,0.13484230754879803,0.1346251156479258,0.13314230092076074,0.13567629583791443,0.13480480132160202,0.13480104622853353,0.1354318124570623,0.1309880174384138,0.13623247429519586,0.12974964138861195,0.13505688429556897,0.13549225157406944,0.12593679141244785
1.750999927520752,blue.png,0.1121796726798621,0.13672564318485775,0.1338879551157898,0.13487315295614635,0.13461009527565185,0.1331217149641174,0.13565553106731545,0.13478743401616025,0.13479930279246602,0.13543411468674119,0.13095522742929785,0.13623444124870793,0.1296849554401583,0.13503752768487068,0.13548909997810124,0.12595094006668806
1.752000093460083,blue.png,0.11226760444254928,0.13674638560371227,0.1339095021974447,0.13484293339764278,0.13461568321176567,0.1331398198771262,0.1356744182913802,0.13479534653369743,0.13481349615019514,0.135444955282802,0.1310017637612538,0.1362450136238353,0.1297560116357817,0.1350537774030897,0.13550510382713124,0.12548535322968402
1.752000093460083,blue.png,0.11216856386286782,0.13673082878957138,0.13389327483097016,0.1348638769821974,0.13462104763043495,0.1331287110601319,0.13566433765463085,0.13479767111512078,0.1347941171877524,0.1354274538668935,0.13093283098135364,0.13622554525441471,0.1296589380096123,0.13504488140879647,0.1354832214693095,0.12614249451667006
1.752000093460083,blue.png,0.11223769780846808,0.1367349638622956,0.13389638172344945,0.13486155240077405,0.1346050661331494,0.13312797345256489,0.13566018023016216,0.13478638348417085,0.13481090334783832,0.13544553642815785,0.1309765062900193,0.136244655995924,0.129700601661277,0.1350416627575949,0.13550105816138483,0.12550189352058094
1.752000093460083,blue.png,0.1122343897502887,0.1367416693856322,0.13390496479332029,0.13484009472609695,0.13462039942984574,0.13313865758641452,0.13567327835241297,0.13480147091167818,0.13479988393782186,0.13543111955298417,0.13096249174624583,0.13622827216723826,0.12970898356544774,0.13505295038854484,0.13549104457986885,0.12589403252530484
1.752000093460083,blue.png,0.11217875625833944,0.13672282686505638,0.13388366358085438,0.13487091778170082,0.1346063625343278,0.13311858571989366,0.13565199949169152,0.13478332129518047,0.13479858753664345,0.13543398057627445,0.13093110989703058,0.13623106613529518,0.12965790982936737,0.13503477842030268,0.13548796003913402,0.12590272735389796
1.752000093460083,blue.png,0.11226715740766018,0.13674350222867754,0.13390543417995385,0.13484098879587517,0.13461208458090837,0.13313774116489185,0.13567059614307833,0.13479389367030783,0.13481050101643813,0.13544303303277885,0.13098667633374647,0.13624034210924413,0.12974490281878742,0.13504919529547635,0.13550188517592968,0.12544181203148508
1.752000093460083,blue.png,0.11213948424333146,0.13672452559763498,0.1338865022524002,0.13485804317689457,0.13461530323210993,0.13312319017925145,0.13565734155861633,0.13479042914991726,0.1347921055307514,0.13542577748605936,0.13091550837940077,0.1362219019200685,0.12965650166946668,0.13504110396398353,0.13548158979196426,0.12610505534470742
1.752000093460083,blue.png,0.11219022270324501,0.13673174521109405,0.1338926489821254,0.13485954074377307,0.134603769731971,0.13312585003684163,0.13565731920687188,0.13478251663238008,0.13480947283619318,0.13544502233803538,0.13095737319676556,0.13624213024880055,0.1297033062223561,0.13503889114128245,0.1354994264840396,0.12546959524984302
1.752000093460083,blue.png,0.11218590881656514,0.13674030592922043,0.13390366839214188,0.13483924535980765,0.13462073470601257,0.13313867993815898,0.13567213841344575,0.13480035332445542,0.1347996604203773,0.13543232654718476,0.13094103407156873,0.13622827216723826,0.12970339562933392,0.1350528162780781,0.13549039637927965,0.12586531053367978
1.752000093460083,blue.png,0.11212893421994856,0.13672137400166678,0.13388234482793152,0.1348693755113334,0.13460517789187168,0.13311793751930445,0.13564922787537906,0.13478157785911296,0.13479583827207545,0.1354322594919514,0.13090895931827537,0.1362286968503829,0.12964318002977132,0.13503200680399022,0.13548440611176563,0.12587959329838672
1.752000093460083,blue.png,0.11222057637221532,0.13673943421118667,0.133901857900841,0.13483625022605064,0.1346077706942285,0.13313398607182336,0.13566505291045342,0.1347892668592056,0.1348076176414034,0.13543997084378848,0.13096577745268076,0.13623719051327593,0.12973294463550383,0.13504490376054093,0.135497727751461,0.1254100502026141
1.753000020980835,blue.png,0.11211427147558588,0.13672103872549995,0.13388397650527675,0.13485270110996975,0.13461168224950817,0.13311959154839414,0.13565329589286992,0.1347862046702152,0.1347872552022046,0.1354198989772676,0.13090390782402847,0.1362164033909325,0.12965411003280997,0.13503518075170287,0.13547564422793915,0.1260732041088586
1.753000020980835,blue.png,0.1121775716158833,0.13672510674299082,0.13388703869426713,0.1348514270605358,0.13459688539467876,0.13311887629257158,0.13565018900039064,0.134777554545111,0.13480357197565698,0.13543831681469878,0.1309425986936806,0.13623613998128653,0.12969581838796357,0.13503263265283497,0.13549254214674736,0.12543897335993925
1.753000020980835,blue.png,0.11217184956930275,0.13673393568205067,0.13389801340079469,0.13483003644109207,0.13461329157510896,0.13313094623457744,0.13566482939300886,0.13479255256564052,0.13479255256564052,0.13542387758778066,0.1309332556644983,0.13622053846365673,0.12970583196947955,0.13504488140879647,0.13548232739953128,0.12583039710884059
1.753000020980835,blue.png,0.11211380208895232,0.13671375205680752,0.13387539343540591,0.13486056892401801,0.13459809238887935,0.13310980148432272,0.13564227648285346,0.13477634755091042,0.1347897138940947,0.13542533045117025,0.1309000856757266,0.13622208073402414,0.12964921500077425,0.13502635181264303,0.13547785705064022,0.12586627165869135
1.753000020980835,blue.png,0.11220294084584008,0.13673223694947206,0.13389526413622668,0.1348297235166697,0.13460153455752547,0.13312658764440866,0.1356586156080503,0.13478278485331355,0.13480118033900026,0.1354335111896409,0.13096128475204524,0.1362307979143617,0.1297393148826736,0.13503893584477136,0.13549131280080232,0.12539543216174032
1.753000020980835,blue.png,0.11209860290272271,0.13671529432717494,0.1338789026592854,0.13484800724363413,0.13460734601108384,0.13311422712972487,0.13564842321257867,0.13478206959749098,0.13478314248122483,0.13541656856734377,0.13090182911179413,0.1362126930013529,0.1296654423672488,0.13503214091445695,0.13547209030057075,0.12606971723672358
1.753000020980835,blue.png,0.11216045017963054,0.13672052463537748,0.13388261304886498,0.13484899072039017,0.1345938679091773,0.13311462946112507,0.1356462997968554,0.13477176544329708,0.13479869929536573,0.13543395822453,0.13094478916463723,0.1362313567079731,0.12970838006834745,0.13502769291731034,0.13548818355657857,0.12545057391531156
1.753000020980835,blue.png,0.11216489817677715,0.13672709604824734,0.13389173256060274,0.13482413558055586,0.1346075695285284,0.13312493361531896,0.1356584591458391,0.13478747871964916,0.13478868571384975,0.1354205024743679,0.13094778429839424,0.13621707394326615,0.1297288542662685,0.13504172981282828,0.13547892993437408,0.12583737085311064
1.753000020980835,blue.png,0.11210707421387127,0.1367091699491942,0.1338723983016489,0.1348557185954712,0.13459494079291115,0.13310588992904304,0.13563854374152942,0.13477248069911965,0.13478504237950353,0.1354211059714682,0.13091843645792442,0.13621812447525555,0.1296676998934388,0.1350222167399188,0.1354735655157048,0.12588218610074353
1.753000020980835,blue.png,0.1122006833196501,0.1367271631034807,0.13389137493269146,0.13482409087706695,0.13459655011851193,0.1331217149641174,0.13565349705857002,0.13477838155965585,0.1347982075569877,0.1354310524977508,0.13097272884520636,0.13622858509166064,0.12975690570555992,0.13503694653951484,0.13548874235018996,0.12540663038571243
1.753000020980835,blue.png,0.11210618014409306,0.13671129336491744,0.13387541578715037,0.13484259812147595,0.1346025180342815,0.13311009205700064,0.13564401991892097,0.13477862742884486,0.1347790521119895,0.13541243349461954,0.13090918283571992,0.13620873674258432,0.1296780934546105,0.1350287210975553,0.13546799993133543,0.12607783091996086
1.753000020980835,blue.png,0.11216442879014359,0.13671668013533117,0.13387943910115233,0.1348446768337103,0.1345897104847086,0.13311013676048955,0.13564194120668663,0.13476879266128453,0.13479644176917574,0.13543089603553962,0.13095491450487548,0.1362286968503829,0.12972192522548737,0.1350252118736758,0.1354855684024773,0.1254629567817398
1.753999948501587,blue.png,0.1121676697930896,0.13672490557729072,0.13389039145593543,0.13482210157181043,0.1346054684645496,0.13312189377807304,0.13565584399173783,0.13478312012948038,0.134785556469626,0.1354165015121104,0.13095292519961896,0.1362134976641533,0.1297346657198269,0.13503687948428147,0.13547548776572796,0.1258348451059872
1.753999948501587,blue.png,0.11210651542025989,0.13670563837357025,0.13386926905742516,0.13485325990358113,0.13459147627252058,0.13310173250457435,0.13563431926182737,0.1347674068531283,0.13478354481262503,0.13541902725923385,0.13091995637654738,0.13621629163221022,0.1296698456609065,0.13501989215849544,0.13547164326568165,0.12589097033631447
1.753999948501587,blue.png,0.11220837231974272,0.1367248608738018,0.13388947503441276,0.13482290623461082,0.13459469492372214,0.13311907745827167,0.13565023370387955,0.13477527466717656,0.13479527947846406,0.13542776679131588,0.13097639453129703,0.13622532173697016,0.12976059374339505,0.13503278911504615,0.13548509901584374,0.12540772562119074
1.753999948501587,blue.png,0.11211317624010757,0.1367078064927824,0.13387206302548207,0.13483855245572954,0.13459963465924676,0.13310568876334294,0.13563923664560754,0.13477402296948707,0.13477409002472043,0.13540762786956165,0.13091340731542198,0.13620364054484851,0.1296826532104794,0.1350237590102862,0.13546238964347715,0.12608087075720678
1.753999948501587,blue.png,0.11217643167691609,0.13670975109455002,0.13387266652258237,0.13483774779292915,0.1345833625892833,0.13310302890575276,0.1356334028403047,0.13476286944900387,0.13478944567316123,0.1354251516372146,0.13095542859499795,0.13622239365844652,0.1297229534057323,0.13501895338522832,0.13547870641692952,0.12547837948541396
1.753999948501587,blue.png,0.11219442483120261,0.13672068109758867,0.13388592110704436,0.13481684891186344,0.13460124398484755,0.1331175575396487,0.13565009959341282,0.13477882859454496,0.13478081789980148,0.13541319345393102,0.13095317106880797,0.1362094967018958,0.12973775026056172,0.13503278911504615,0.13547139739649264,0.12583482275424274
1.753999948501587,blue.png,0.11214813436843567,0.1366993128298894,0.13386267529281085,0.13484606264186652,0.13458593303989566,0.13309583164403815,0.13562676437220147,0.13476076838502507,0.13477598992299913,0.13541243349461954,0.13092078339109223,0.13620902731526224,0.12967900987613318,0.1350137677805147,0.13546464716966714,0.1258957536096279
1.753999948501587,blue.png,0.11224487271843823,0.1367181106469763,0.13388297067677626,0.13481608895255195,0.13458919639458614,0.1331128636733131,0.13564323760786504,0.13476872560605116,0.1347871657952268,0.1354201001429677,0.13097994845866542,0.13621763273687754,0.12976834979872104,0.13502572596379828,0.13547767823668458,0.125402338850777
1.753999948501587,blue.png,0.11214509453118975,0.13670054217583444,0.13386567042656786,0.13483039406900335,0.13459333146731037,0.13309967614408447,0.13563208408738184,0.13476646807986117,0.13476892677175126,0.1354027551892704,0.13091376494333326,0.13619908078897963,0.129686855338437,0.13502022743466227,0.13545774048063045,0.12607552869028196
1.753999948501587,blue.png,0.11220488544760769,0.1367049678212366,0.13386821852543576,0.13483289746438235,0.1345791157578368,0.13309943027489546,0.13562908895362483,0.13475911435593538,0.13478477415857007,0.1354200107359899,0.13094988536237304,0.13621756568164417,0.12972404864121062,0.13501580178926012,0.1354739231436161,0.125474602040601
1.7549998760223389,blue.png,0.11220613714529719,0.13671542843764167,0.13388069079884182,0.1348110151065606,0.13459648306327857,0.13311302013552428,0.13564473517474354,0.13477556523985448,0.13477603462648804,0.13540731494513927,0.1309472478565273,0.13620408757973762,0.12973779496405063,0.13502923518767776,0.13546598827433445,0.12581926594010184
1.7549998760223389,blue.png,0.11214015479566512,0.13669522246065408,0.13385816024043087,0.13484085468540843,0.1345821108915938,0.1330917636265473,0.13562251754075497,0.13475808617569043,0.13477426883867608,0.13540932660214025,0.13091568719335642,0.13620645686464988,0.12967807110286605,0.1350124043241029,0.13546272491964398,0.12588877986535785
1.7549998760223389,blue.png,0.11223307099736583,0.1367182224056986,0.13388288126979844,0.1348156642694073,0.1345894646155196,0.13311322130122438,0.1356441093258988,0.13476928439966254,0.13478893158303876,0.13542108361972374,0.13097599219989683,0.13621888443456703,0.12976638284520897,0.13502708942021005,0.13547939932100764,0.1253882349000257
1.7549998760223389,blue.png,0.11213264460952814,0.13669969280954514,0.13386486576376747,0.13482918707480276,0.134593018542888,0.13309934086791764,0.13563188292168174,0.13476662454207236,0.13476758566708394,0.13540060942180268,0.13091477077183375,0.1361972926494232,0.12968676593145917,0.13501779109451664,0.13545653348642986,0.12606488925992124
1.75600004196167,blue.png,0.11218729462472136,0.1367011680246792,0.133864843412023,0.13483030466202553,0.13457638884501325,0.13309607751322716,0.1356258032471899,0.13475502398670006,0.13477952149862307,0.13541453455859834,0.1309568591066431,0.136212402428675,0.129730105963958,0.13500969976302382,0.1354689163528581,0.12546449905210721
1.75600004196167,blue.png,0.11219701763355942,0.13670892408000518,0.13387472288307226,0.1348057624466136,0.13459087277542028,0.13310734279243264,0.13563941545956318,0.13476874795779561,0.1347724583473752,0.13540411864568216,0.13095364045544153,0.1362008465767916,0.1297441205077315,0.13502570361205382,0.13546299314057744,0.12580252448350482
1.75600004196167,blue.png,0.11213358338279526,0.1366917132367746,0.1338553439206295,0.13483955828423003,0.13457969690319263,0.13308972961780186,0.13562037177328726,0.1347556498355448,0.13476928439966254,0.13540487860499364,0.13091378729507772,0.136201897108781,0.12967541124527587,0.13500753164381166,0.135457963998075,0.12587650875765188
1.75600004196167,blue.png,0.11222737130252973,0.13671129336491744,0.13387584047029502,0.1348108139408605,0.13458278144392746,0.1331066051848656,0.13563682265720636,0.13476074603328062,0.13478356716436948,0.13541672502955496,0.13096939843528252,0.13621421291997587,0.12976007965327258,0.13502143442886286,0.1354743701785052,0.1253660843212705
1.75600004196167,blue.png,0.11213286812697269,0.13669549068158754,0.1338603507113875,0.13482643781023476,0.1345890622841194,0.13309538460914905,0.13562756903500187,0.13476358470482644,0.13476383057401545,0.13539792721246804,0.1309118426933101,0.13619400694298828,0.12968301083839068,0.13501539945785992,0.1354531583730171,0.12605143350975914
1.75600004196167,blue.png,0.11219203319454589,0.13670002808571197,0.1338629435137443,0.13483072934517018,0.13457500303685702,0.13309457994634866,0.13562419392158911,0.13475383934424393,0.13477902976024506,0.13541486983476517,0.13095102530134026,0.13621222361471935,0.12971872892603026,0.13500999033570174,0.13546864813192463,0.12545654183108113
1.75600004196167,blue.png,0.11220124211326148,0.13670932641140537,0.13387456642086107,0.13480643299894726,0.13459033633355336,0.1331065604813767,0.1356382978723404,0.1347680997572064,0.1347708490217744,0.1354028445962482,0.13094624202802682,0.13619943841689092,0.12972579207727813,0.13502315551318592,0.13546122735276547,0.1257828325966397
1.7569999694824219,blue.png,0.11214080299625433,0.1366882040128951,0.13385152177232765,0.13483571378418371,0.13457493598162365,0.13308438755087704,0.13561502970636244,0.13474936899535286,0.1347649034577493,0.13540052001482486,0.1309160895247566,0.13619778438780122,0.12966486122189297,0.13500294953619832,0.13545318072476156,0.12587686638556317
1.7569999694824219,blue.png,0.1122402906108249,0.13670892408000518,0.13387315826096038,0.13480797526931468,0.1345787581299255,0.13310334183017514,0.1356333581368158,0.13476092484723626,0.1347791638707118,0.13541254525334182,0.13097337704579556,0.13621041312341847,0.12975569871135934,0.1350187075160393,0.1354698104226363,0.12536966060038335
1.7569999694824219,blue.png,0.11213789726947514,0.1366926073065528,0.1338570426532081,0.13482245919972172,0.13458479310092844,0.1330922553649253,0.13562363512797773,0.13476056721932497,0.1347598519635024,0.1353937921397438,0.13090690295778548,0.13619045301561988,0.12967342194001935,0.13501164436479143,0.13544902330029288,0.12604732078877937
1.7569999694824219,blue.png,0.11219176497361243,0.13669658591706585,0.1338593001793981,0.13482679543814605,0.13457080090889942,0.13309082485328017,0.13562023766282053,0.13474941369884177,0.1347766604753328,0.1354122546806639,0.1309452585512708,0.13621021195771837,0.12971043642883734,0.13500784456823403,0.13546625649526792,0.1254566088863145
1.7569999694824219,blue.png,0.11220580186913036,0.13670657714683737,0.13387148188012624,0.13480194029831175,0.13458620126082912,0.13310372180983088,0.13563496746241657,0.13476416585018228,0.1347655516583385,0.13539716725315656,0.13094621967628237,0.1361943422191551,0.12972704377496763,0.13501832753638357,0.13545595234107402,0.12577715525354805
1.7569999694824219,blue.png,0.11213999833345394,0.13668344309132613,0.13384615735365837,0.1348301258480699,0.13456999624609903,0.13307971603628588,0.135610492302238,0.13474588212321784,0.1347600531292025,0.1353956026310447,0.1309103451264316,0.13619286700402106,0.12966825868705018,0.13499944031231884,0.13544879978284832,0.12587852041465286
1.7569999694824219,blue.png,0.11223535087530027,0.13670344790261363,0.13386696682774626,0.13480247674017867,0.1345739078013787,0.13309757508010567,0.13562768079372414,0.1347553592628669,0.13477268186481975,0.13540552680558285,0.130964905734647,0.13620368524833742,0.12975692805730438,0.13501238197235846,0.1354638648586112,0.12535651777464363
2.2309999465942383,green.gif,0.11214116062416561,0.13668592413496067,0.13384962187404895,0.13481499371707364,0.1345783557985253,0.1330848122340217,0.1356167507906855,0.1347545993035554,0.13475319114365472,0.1353867513402404,0.13090178440830522,0.13618363573356101,0.12967816050984388,0.13500614583565543,0.13544289892231212,0.12603992236136466
2.2309999465942383,green.gif,0.11219310607827974,0.13669003685594044,0.13385257230431705,0.13482143101947677,0.13456503415882995,0.13308447695785486,0.1356133980290172,0.1347444516115727,0.13477024552467412,0.13540566091604958,0.13094771724316087,0.13620386406229307,0.12971872892603026,0.13500194370769783,0.13546028857949835,0.1254593581508825
2.2309999465942383,green.gif,0.11220551129645244,0.1366999163269897,0.13386526809516766,0.1347970676180205,0.13458079213867094,0.13309759743185012,0.13562886543618027,0.1347583991001128,0.13475998607396913,0.13539173577925392,0.13094751607746077,0.13618902250397474,0.12973488923727144,0.13501354426307013,0.13545090084682712,0.12577601531458082
2.2309999465942383,green.gif,0.1121379643247085,0.13667774339649003,0.1338410388041781,0.13482632605151249,0.13456559295244133,0.13307524568739482,0.1356051502353132,0.13474143412607123,0.13475482282099996,0.13539077465424235,0.1309075958618636,0.13618828489640772,0.12966593410562682,0.1349953052395946,0.1354439047508126,0.12589014332176962
2.2309999465942383,green.gif,0.11223747429102353,0.13669832935313336,0.13386263058932193,0.1347990122197881,0.13456952685946547,0.13309368587657044,0.13562271870645506,0.1347499948441976,0.13477058080084095,0.13540371631428197,0.13096799027538183,0.13620200886750328,0.12975764331312695,0.1350108620537355,0.13546165203591012,0.12536937002770543
2.2319998741149902,green.gif,0.11214610035969023,0.13668261607678128,0.13384745375483678,0.13481280324611702,0.13457589710663523,0.1330827111700429,0.13561382271216185,0.13475178298375404,0.13474941369884177,0.13538268332274953,0.13090741704790795,0.1361800371027037,0.1296793451523,0.13500288248096495,0.13543903207052135,0.1260543615882828
2.2319998741149902,green.gif,0.11219809051729328,0.13668487360297127,0.133848347824615,0.1348175194641971,0.13456098849308354,0.1330798054432637,0.13560863710744822,0.13473928835860352,0.13476624456241662,0.13540078823575832,0.13095381926939717,0.1361997960448022,0.12972152289408717,0.1349982109663738,0.13545619821026303,0.12547969823833682
2.2319998741149902,green.gif,0.11221277561340041,0.13669560244030982,0.13386146829861026,0.1347935136906521,0.1345770593973469,0.13309352941435926,0.1356254456192786,0.13475569453903372,0.13475933787337993,0.1353899476396975,0.13095773082467685,0.13618828489640772,0.12974740621416642,0.13501298546945875,0.13545054321891584,0.12578231850651722
2.2319998741149902,green.gif,0.11214835788588022,0.1366774081203232,0.13384106115592256,0.13482768950792426,0.13456574941465252,0.1330747092455279,0.13560526199403547,0.13474116590513777,0.1347545546000665,0.13538936649434166,0.1309149942892783,0.13618788256500752,0.1296767523499432,0.1349947017424943,0.1354436141781347,0.12590426962426537
2.2319998741149902,green.gif,0.11224797961091752,0.1366945072048315,0.13385900960672018,0.13479807344652098,0.13456568235941915,0.13308912612070156,0.13561894126164212,0.13474539038483982,0.13476608810020543,0.13539866482003507,0.13097203594112825,0.13619791849826796,0.12976499703705274,0.13500529646936613,0.13545740520446362,0.1253704876149282
2.2319998741149902,green.gif,0.11215378935978286,0.13668022444012456,0.13384508446992452,0.13481313852228385,0.1345733043042784,0.13307969368454142,0.13561093933712712,0.1347493019401195,0.13474749144881862,0.13538015757562608,0.13091481547532266,0.13617822661140283,0.12968886699543797,0.13499988734720794,0.13543713217224265,0.12605943543427414
2.2319998741149902,green.gif,0.1122101828110436,0.1366816549517697,0.1338447938972466,0.13481747476070818,0.13455747926920406,0.1330757597775173,0.1356051502353132,0.1347360026521686,0.1347623106553925,0.13539663081128964,0.13095491450487548,0.13619617506220044,0.12972827312091267,0.13499347239654927,0.13545242076545008,0.12548812484599647
2.2319998741149902,green.gif,0.11222605254960687,0.136693255507142,0.13385867433055335,0.13479340193192982,0.13457328195253396,0.13309004254222423,0.13562171287795458,0.13475187239073186,0.1347556051320559,0.13538608078790673,0.1309579096386325,0.13618470861729487,0.12974642273741038,0.13500838101010096,0.13544669871886952,0.12577959159369367
2.2330000400543213,green.gif,0.11216138895289766,0.13667358597202134,0.13383665786226487,0.13482534257475645,0.13456098849308354,0.13306963539953653,0.1356003446102553,0.13473720964636918,0.13475151476282057,0.13538596902918446,0.130919643452125,0.13618486507950606,0.12967923339357773,0.1349908125389591,0.13544057434088877,0.12591602664184887
2.2330000400543213,green.gif,0.11226034012560131,0.13669314374841973,0.13385708735669702,0.13479758170814296,0.1345634024814847,0.13308718151893395,0.13561697430813005,0.13474480923948398,0.1347640093879711,0.13539627318337835,0.13097854029876474,0.13619606330347817,0.12976859566791005,0.13500252485305367,0.13545519238176254,0.12537730489698706
2.2330000400543213,green.gif,0.11216398175525448,0.13667709519590082,0.13384173170825622,0.13480913756002635,0.13456903512108745,0.1330759609432174,0.13560758657545882,0.13474492099820626,0.1347444516115727,0.13537747536629144,0.13091890584455798,0.1361757902712572,0.1296936502687514,0.13499689221345093,0.1354339135210411,0.12606497866689906
2.2330000400543213,green.gif,0.11221554722971287,0.13667897274243507,0.13384191052221187,0.13481443492346226,0.13455394769358012,0.13307388223098304,0.13560166336317817,0.13473320868411168,0.13476018723966923,0.13539535676185568,0.1309568591066431,0.1361949457162554,0.12973218467619235,0.13499199718141522,0.13545045381193802,0.12549467390712188
2.2330000400543213,green.gif,0.11222779598567438,0.13669012626291827,0.1338555450863296,0.13478946802490568,0.1345704656327326,0.13308883554802364,0.13561907537210885,0.1347495478093085,0.1347509559692092,0.13538192336343804,0.1309613071037897,0.13618061824805955,0.1297673216184761,0.13500489413796593,0.13544231777695628,0.12578055271870525
2.2330000400543213,green.gif,0.1121571197697067,0.1366667016347291,0.13382990763543937,0.1348180112025751,0.13455504292905843,0.13306532151285666,0.13559493548809712,0.13473226991084455,0.13474357989353894,0.1353787494157254,0.13092377852484924,0.13617742194860244,0.1296963548298305,0.13498448699527824,0.1354331088582407,0.12593650083976993
2.2330000400543213,green.gif,0.11226545867508157,0.1366852088791381,0.13384901837694865,0.13478899863827212,0.134555512315692,0.1330802524781528,0.13560941941850416,0.13473716494288027,0.13475813087917934,0.13539057348854225,0.1309817142464774,0.1361905424225977,0.1297749659150798,0.1349974510070623,0.13544969385262653,0.12539102886808262
2.2330000400543213,green.gif,0.11217927034846191,0.13667244603305412,0.1338369931384317,0.13480278966460105,0.13456391657160718,0.13307117766990395,0.13560262448818974,0.1347383048818475,0.13474038359408183,0.1353731391278671,0.13092498551904982,0.136172146936911,0.12969559487051902,0.13499289125119343,0.1354297560965724,0.1260763557048268
2.2339999675750732,green.gif,0.11223244514852108,0.1366740553586549,0.13383714960064289,0.13480902580130408,0.1345485609231664,0.13306782490823565,0.13559661186893127,0.13472782191369795,0.13475379464075501,0.13538851712805236,0.13096517395558047,0.1361890895592081,0.1297311564959474,0.13498562693424546,0.13544415062000162,0.12553005671859463
2.2339999675750732,green.gif,0.11224757727951733,0.13668489595471572,0.13385058299906052,0.1347832095364582,0.13456384951637382,0.1330816606380535,0.1356127945319169,0.13474422809412814,0.13474843022208574,0.1353785482500253,0.13097833913306464,0.13617847248059184,0.12976589110683096,0.13500125080361972,0.1354396579193661,0.12579751769274683
2.2339999675750732,green.gif,0.11217359300537026,0.13666654517251792,0.13383037702207293,0.1348167595048856,0.1345542606180025,0.1330631980971334,0.1355941978805301,0.1347318452276999,0.13474454101855052,0.13537841413955856,0.13093607198429966,0.13617820425965838,0.12969876881823167,0.13498466580923388,0.13543369000359654,0.12595885258422523
2.2339999675750732,green.gif,0.11226834205011631,0.13668471714076008,0.13384906308043756,0.1347884621964052,0.13455533350173635,0.1330793584083746,0.13560897238361505,0.13473720964636918,0.13475627568438955,0.13538762305827415,0.13098958206052566,0.1361879943237298,0.12978529242101816,0.1349942100041163,0.13544754808515883,0.1253997907519091
2.2339999675750732,green.gif,0.11217381652281481,0.1366685568295189,0.13383272395524073,0.1347990122197881,0.13456110025180582,0.133067400225091,0.13559936113349927,0.13473575678297958,0.13473758962602492,0.13536895935165397,0.1309269971760508,0.13616805656767567,0.1297049602514458,0.1349892032133583,0.13542669390758202,0.12607686979494928
2.2339999675750732,green.gif,0.1122255831629733,0.13667186488769828,0.13383435563258597,0.13480750588268112,0.13454733157722135,0.13306543327157894,0.13559475667414148,0.1347257432014636,0.13475341466109927,0.13538710896815168,0.1309703595602941,0.13618777080628525,0.1297398066210516,0.1349847105127228,0.13544330125371232,0.12553269422444036
2.2339999675750732,green.gif,0.11224849370104,0.13668458303029335,0.13385002420544914,0.134782807205058,0.13456411773730728,0.1330815041758423,0.135612503959239,0.13474337872783884,0.13474693265520724,0.13537698362791342,0.1309855140430348,0.1361767960997577,0.12977190372608943,0.13499988734720794,0.1354377133175985,0.1257933379165337
2.2339999675750732,green.gif,0.1121779739472835,0.13666129251257092,0.13382501260340365,0.134812311507739,0.1345492985307334,0.13305823600986433,0.13558876640662745,0.13472551968401905,0.13473884132371441,0.1353730944243782,0.13093727897850024,0.13617277278575574,0.12970198746943323,0.13497932374230906,0.13542799030876043,0.12596888851748567
2.2339999675750732,green.gif,0.11228470352705759,0.13668044795756912,0.13384423510363522,0.13478475180682561,0.13454992437957816,0.1330747539490168,0.1356036973719236,0.13473258283526693,0.13475377228901056,0.13538565610476208,0.13098587167094608,0.13618591561149546,0.12977798340058128,0.1349921536436264,0.13544488822756864,0.1254031435135774
2.234999895095825,green.gif,0.11219974454638297,0.13666864623649672,0.13383227692035163,0.13479802874303207,0.13455873096689355,0.1330669531902019,0.13559781886313185,0.13473586854170186,0.13473490741669028,0.13536672417720844,0.13092706423128417,0.1361658884484635,0.1297020098211777,0.13498763859124643,0.13542374347731392,0.12608657045204288
2.234999895095825,green.gif,0.11224467155273814,0.13666757335276286,0.13382997469067273,0.13480312494076788,0.13454172128936306,0.13306152171629926,0.1355895934211723,0.13472236808805085,0.1347490560709305,0.13538317506112754,0.13096396696137988,0.1361839486579834,0.12973209526921453,0.13498097777139875,0.13543892031179908,0.12555430836132864
2.234999895095825,green.gif,0.11225137707607473,0.1366788609837128,0.13384405628967957,0.1347764593096327,0.13455727810350396,0.1330762068124064,0.13560646898823606,0.134737544922536,0.13474116590513777,0.1353711498226106,0.13097208064461716,0.13617105170143268,0.12976577934810868,0.13499432176283857,0.13543199127101793,0.12579434374503418
2.234999895095825,green.gif,0.11217278834256987,0.1366567998119354,0.13382022933009022,0.13480739412395884,0.13454473877486453,0.13305436915807356,0.13558487720309223,0.134721295204317,0.13473488506494583,0.1353687358342094,0.13093537908022154,0.1361688835822205,0.12969988640545443,0.13497576981494067,0.13542378818080283,0.1259874851688725
2.234999895095825,green.gif,0.1122714489425956,0.13667559762902232,0.13384016708614435,0.13478068378933475,0.1345465492661654,0.13307117766990395,0.13560063518293322,0.13472860422475388,0.13474921253314168,0.13538051520353736,0.13099528175536176,0.13618160172481558,0.1297907238949208,0.13498759388775752,0.1354404625821665,0.1254217401649642
2.234999895095825,green.gif,0.11218561824388722,0.1366614042712932,0.1338262419493487,0.13479136792318439,0.13455367947264665,0.13306096292268788,0.1355927897206294,0.13472907361138745,0.13473028060558803,0.13536100213062788,0.13093531202498818,0.13616081460247215,0.1297136550800389,0.1349820506551326,0.1354190496109783,0.12609763456554826
2.234999895095825,green.gif,0.11224058118350282,0.13666317005910517,0.13382586196969296,0.13479907927502147,0.13453852498990596,0.13305702901566374,0.1355866429909042,0.13471747305601514,0.13474543508832873,0.1353783917878141,0.13097127598181676,0.13617956771607015,0.1297452157432098,0.13497646271901878,0.13543516521873059,0.12556602067542322
2.2360000610351562,green.gif,0.11226481047449237,0.13667517294587767,0.1338401447343999,0.13477203366423054,0.13455356771392438,0.1330718482222376,0.13560311622656776,0.13473423686435662,0.13473808136440293,0.13536701474988636,0.13097713213886406,0.13616745307057537,0.1297709202493334,0.13499014198662543,0.1354293090616833,0.1257904768932434
2.2360000610351562,green.gif,0.11218631114796533,0.13665472109970106,0.13381772593471122,0.13480428723147955,0.13454248124867454,0.13305132932082764,0.13558188206933522,0.13471841182928226,0.13473345455330069,0.13536600892138587,0.13093296509182037,0.1361667825182417,0.1297001993298768,0.13497304290211712,0.13542267059358007,0.12598341715138164
2.2360000610351562,green.gif,0.11228110489620029,0.13667416711737718,0.13383831189135456,0.13477954385036753,0.13454471642312008,0.13306827194312476,0.13559833295325432,0.13472592201541925,0.1347480055389411,0.13537825767734737,0.13099858981354115,0.13618005945444817,0.12979644594150136,0.13498578339645664,0.13543938969843264,0.12542849039178972
2.2360000610351562,green.gif,0.11218698170029899,0.13665856559974737,0.1338239397196698,0.13478982565281697,0.13455173487087904,0.13305917478313145,0.13559075571188398,0.1347288500939429,0.13472721841659765,0.13535831992129324,0.1309288970743295,0.13615846766930434,0.1297122022166493,0.1349807095504653,0.1354162556429214,0.1260998697399938
2.2360000610351562,green.gif,0.11223246750026554,0.1366576491782247,0.1338207434202127,0.13479637471394237,0.13453407699275935,0.13305378801271772,0.13558150208967948,0.13471445557051367,0.1347394448208147,0.1353730944243782,0.13095576387116478,0.13617418094565642,0.1297311564959474,0.13497232764629455,0.1354290631924943,0.1255966872688159
2.2360000610351562,green.gif,0.11225522157612104,0.1366702555620975,0.13383551792329765,0.13477071491130768,0.13454903030979995,0.13306854016405822,0.13559842236023215,0.13472963240499883,0.1347337451259786,0.13536330436030677,0.13096904080737123,0.13616387679146252,0.1297660699207866,0.13498687863193495,0.13542463754709214,0.1258039326434055
2.236999988555908,green.gif,0.1121876299008882,0.13664906610835387,0.13381236151604195,0.13480088976632235,0.13453682625732735,0.13304632253006965,0.13557665176113268,0.13471340503852428,0.13472815718986478,0.1353610468341168,0.1309318028011087,0.136161887486206,0.1297007581234882,0.1349691536985819,0.1354168591400217,0.12601137918369523
2.236999988555908,green.gif,0.1122906490910827,0.13666931678883038,0.1338329474726853,0.13477681693754398,0.13453886026607279,0.13306286282096658,0.1355927897206294,0.1347197976374385,0.13474277523073855,0.135372937962167,0.13099239838032703,0.136174896201479,0.12978958395595358,0.13497979312894262,0.13543384646580772,0.12543714051689392
2.23799991607666,green.gif,0.11220477368888541,0.136655995149135,0.13382047519927923,0.13478653994638204,0.134547510391177,0.1330549950069183,0.13558702297055994,0.13472431268981847,0.13472415622760728,0.13535463188345812,0.13093466382439897,0.13615500314891377,0.12971694078647383,0.13497693210565234,0.1354131487504421,0.12609738869635925
2.239000082015991,green.gif,0.11224223521259251,0.13665621866657957,0.13381879881844508,0.1347947653883416,0.13453193122529164,0.1330505023062828,0.13557966924663414,0.1347112369193121,0.13473817077138076,0.13537177567145534,0.13096568804570294,0.13617333157936712,0.1297397172140738,0.13497058421022703,0.13542872791632746,0.12560354925436368
2.239000082015991,green.gif,0.11226796207046057,0.136668757995219,0.13383402035641914,0.13476854679209552,0.13454681748709887,0.1330657014925124,0.13559683538637582,0.13472753134102003,0.1347309511579217,0.13536082331667224,0.13098618459536845,0.13616177572748372,0.1297772234412698,0.13498397290515576,0.1354230505732358,0.12580046812301493
2.240000009536743,green.gif,0.11219165321489015,0.13664667447169715,0.1338104839695077,0.13479872164711018,0.13453459108288182,0.13304435557655758,0.13557515419425417,0.1347120415821125,0.13472393271016272,0.13535738114802612,0.13094646554547137,0.1361583335588376,0.12970433440260104,0.13496609150959152,0.1354137969510313,0.12601971638437706
2.240000009536743,green.gif,0.11228948680037103,0.13666482408819486,0.13382932649008353,0.13477348652762014,0.1345347028416041,0.1330600465011652,0.13559093452583962,0.13471707072461495,0.1347394448208147,0.13537023340108792,0.13100359660429914,0.13617228104737772,0.129785873566374,0.13497769206496382,0.13543156658787328,0.12544107442391805
2.240000009536743,green.gif,0.11219762113065972,0.1366517483176885,0.1338166306992329,0.13478307542599147,0.13454357648415285,0.13305235750107258,0.13558626301124846,0.13471865769847127,0.13472158577699492,0.13535232965377922,0.13093466382439897,0.13615236564306804,0.12969458904201853,0.1349740040271287,0.13541149472135242,0.12608967734452217
2.240000009536743,green.gif,0.112232735721199,0.1366538046781784,0.13381640718178836,0.13479431835345249,0.13453027719620195,0.13305041289930497,0.13558194912456858,0.13470958289022242,0.13473598030042414,0.13537012164236564,0.13095384162114163,0.13617020233514338,0.12970192041419987,0.1349685502014816,0.13542678331455985,0.12559541321938195
2.240000009536743,green.gif,0.11225676384648846,0.13666567345448416,0.133830086449395,0.13476649043160563,0.13454373294636404,0.1330648521262231,0.13559846706372106,0.1347246479659853,0.13473157700676644,0.1353615385724948,0.13095974248167783,0.13616000993967176,0.12972103115570915,0.13498314589061092,0.13542298351800244,0.12577436128549113
2.240000009536743,green.gif,0.11217895742403954,0.13664674152693052,0.133808829940418,0.134799056923277,0.1345343452136928,0.13304531670156916,0.13557828343847791,0.13471237685827933,0.13472583260844143,0.135359191639327,0.13091566484161196,0.1361570371576592,0.12964606340480606,0.13496557741946905,0.13541498159348744,0.12598524999442698
2.240000009536743,green.gif,0.11227822152116555,0.13666533817831733,0.13382776186797166,0.13477406767297598,0.13453468048985964,0.13306015825988748,0.13559285677586277,0.13471633311704792,0.13474138942258232,0.13537197683715543,0.13096682798467016,0.13617042585258793,0.12972702142322318,0.13497521102132928,0.13543272887858496,0.1253879890308367
2.240999937057495,green.gif,0.11218456771189782,0.13665197183513306,0.13381455198699857,0.13478242722540226,0.13454277182135246,0.1330507928789607,0.13558633006648182,0.13471711542810386,0.13472136225955036,0.13535170380493447,0.13090361725135055,0.13614847643953282,0.1296499973118302,0.13496989130614892,0.13541093592774103,0.12604068232067614
2.240999937057495,green.gif,0.11221286502037824,0.13664937903277624,0.13380996987938523,0.1347899150597948,0.13452491277753267,0.13304455674225768,0.1355765847058993,0.1347029891256081,0.13473316398062277,0.1353663441975527,0.13092811476327357,0.1361637873844847,0.12966743167250533,0.13496168821593382,0.13542318468370254,0.1255270168813487
2.240999937057495,green.gif,0.11223213222409871,0.13666158308524884,0.13382461027200346,0.13476217654492575,0.13453928494921744,0.13305957711453165,0.13559296853458505,0.13471968587871622,0.1347277995619535,0.13535722468581493,0.13094322454252535,0.136153885561691,0.12970618959739083,0.13497657447774106,0.1354187590383004,0.12571313985742805
2.240999937057495,green.gif,0.11213365043802863,0.13663979013440491,0.13380127505079212,0.13479253021389606,0.13452743852465612,0.13303865588172148,0.13557086265931875,0.1347059842593651,0.13471941765778275,0.13535297785436842,0.13089601765823575,0.13614939286105548,0.12962981368658705,0.1349575978466985,0.13540834312538422,0.1259311140693562
2.240999937057495,green.gif,0.11222341504376114,0.13665861030323628,0.1338205869580015,0.1347680997572064,0.13452790791128968,0.13305381036446218,0.1355854359967036,0.13470976170417806,0.13473656144577997,0.13536761824698665,0.1309497512519063,0.1361650837856631,0.12971734311787403,0.13496901958811516,0.13542738681166014,0.1253370717569675
2.7130000591278076,green.gif,0.11213320340313952,0.1366458921606412,0.133808584071229,0.1347765040131216,0.13453658038813834,0.13304513788761352,0.13557935632221177,0.1347122874513015,0.13471508141935842,0.13534631703452074,0.1308905414808442,0.13614239676504097,0.1296492373525187,0.13496343165200134,0.13540476684627137,0.1260053889161812
2.7130000591278076,green.gif,0.1121720730867473,0.13664553453272993,0.13380634889678347,0.13478633878068194,0.13452088946353072,0.13304022050383335,0.13557130969420786,0.13470066454418475,0.13472945359104319,0.1353633937672846,0.13091716240849047,0.13616065814026096,0.12967067267545135,0.1349569496461093,0.13541898255574494,0.1255013123752251
2.7130000591278076,green.gif,0.11219775524112645,0.13665957142824786,0.13382300094640268,0.13475953903908003,0.1345363568706938,0.13305691725694146,0.13558910168279428,0.13471561786122535,0.134726547864264,0.135356442374759,0.1309299476063189,0.13615270091923487,0.1297052508241237,0.1349733558265395,0.13541668032606605,0.12569266565950699
2.7130000591278076,green.gif,0.11211483026919726,0.13663827021578195,0.13380044803624727,0.13479042914991726,0.13452607506824435,0.13303686774216505,0.13556824750521748,0.13470256444246345,0.13471745070427069,0.13535132382527873,0.1308825842598181,0.13614724709358778,0.12963075245985417,0.1349548932856194,0.1354053479916272,0.12592543672626455
2.7139999866485596,green.gif,0.11221514489831268,0.13665545870726808,0.13381841883878934,0.13476537284438286,0.13452462220485475,0.13305132932082764,0.13558132327572384,0.13470795121287718,0.1347337004224897,0.13536500309288538,0.1309381059930451,0.1361622451141173,0.12971459385330603,0.1349660021026137,0.13542354231161383,0.12533476952728861
2.7139999866485596,green.gif,0.11212842012982609,0.1366441934280626,0.13380806998110653,0.13477426883867608,0.13453485930381529,0.1330442438178353,0.13557729996172188,0.13471130397454548,0.13471360620422437,0.1353440371565863,0.13088788162325402,0.13614025099757326,0.12965127136126414,0.13496108471883353,0.13540212934042564,0.12600677472433744
2.7139999866485596,green.gif,0.11216004784823035,0.13664101948034996,0.13380310789383745,0.13478137669341286,0.1345170002599955,0.1330363983555315,0.1355670405110169,0.13469652947146052,0.13472677138170855,0.13535975043293838,0.130914144922989,0.13615710421289257,0.12967192437314085,0.13495312749780744,0.13541529451790982,0.1255037710671152
2.7139999866485596,green.gif,0.1121868252380878,0.13665662099797976,0.13382110104812397,0.13475538161461134,0.13453367466135915,0.13305412328888455,0.13558662063915974,0.13471405323911348,0.1347232398060846,0.1353522402468014,0.13092382322833815,0.136148632901744,0.12969997581243226,0.1349689525328818,0.1354129028812531,0.12567887463317806
2.7149999141693115,green.gif,0.11210434730104772,0.13663458217794683,0.13379756466121254,0.1347848635655479,0.13452238703040922,0.13303221857931835,0.1355640900807488,0.13469775881740556,0.13471380736992447,0.1353469875868544,0.1308753422946146,0.13614311202086354,0.1296243375091955,0.13495011001230597,0.13540163760204763,0.12591884296165023
2.7149999141693115,green.gif,0.11219829168299338,0.1366525976839778,0.13381604955387708,0.1347604554606027,0.1345222976234314,0.13304808831788162,0.13557890928732266,0.13470370438143067,0.13473028060558803,0.1353617844416838,0.13093260746390908,0.13615862413151553,0.12971428092888365,0.13496235876826748,0.13542034601215672,0.12532553825682857
2.7149999141693115,green.gif,0.11211442793779706,0.1366407512594165,0.13380509719909398,0.1347689491234957,0.13453188652180273,0.13304151690501176,0.13557441658668715,0.13470931466928895,0.13471108045710092,0.13534202549958532,0.1308820925214401,0.13613750173300526,0.12965413238455442,0.13495918482055483,0.13539978240725783,0.12600695353829308
2.7149999141693115,green.gif,0.11214898373472497,0.13663777847740394,0.13380051509148064,0.13477757689685546,0.1345145415681054,0.1330336490909635,0.13556440300517117,0.1346937355034036,0.13472205516362848,0.1353554365462585,0.13091190974854347,0.1361521421256235,0.1296734442917638,0.13494832187274955,0.13541086887250767,0.1255095601689291
2.7149999141693115,green.gif,0.11217571642109352,0.1366509436548881,0.13381647423702173,0.13474883255348594,0.13452886903630126,0.1330490047394043,0.1355813456274683,0.1347074371227547,0.13471776362869306,0.13534665231068757,0.13092880766735168,0.13614295555865236,0.12971139755384892,0.13496298461711223,0.13540791844223957,0.1256782040808444
2.7149999141693115,green.gif,0.11208597416710546,0.13662948598021102,0.13379396603035523,0.13478008029223446,0.13451872134431855,0.1330280388031052,0.13556040204291367,0.13469270732315866,0.13471170630594567,0.13534461830194214,0.13088397006797434,0.13614089919816247,0.12963971550938075,0.13494836657623846,0.13540007297993575,0.12592874478444394
2.7160000801086426,green.gif,0.112181974909541,0.13664890964614268,0.13381394848989828,0.13475808617569043,0.13451943660014112,0.133045897846925,0.1355759365053101,0.13470160331745187,0.13472556438750796,0.1353573364445372,0.13093942474596795,0.13615417613436892,0.1297230651644546,0.13495806723333206,0.13541583095977675,0.12533470247205525
2.7160000801086426,green.gif,0.11210472728070346,0.1366344480674801,0.13380035862926945,0.13476342824261525,0.13452607506824435,0.13303648776250931,0.13556804633951738,0.13470381614015295,0.13470441963725324,0.1353358787698601,0.13088499824821928,0.13613139970676896,0.1296552946752661,0.13495357453269655,0.1353927416077544,0.12601571542211956
2.7160000801086426,green.gif,0.1121400653886873,0.13663243641047912,0.13379680470190106,0.13477464881833182,0.13450955712909188,0.1330294916664948,0.13555850214463497,0.1346891310440458,0.13471771892520415,0.13535161439795665,0.1309109933270208,0.13614825292208826,0.12967205848360758,0.13494541614597036,0.13540626441314987,0.12553253776222917
2.7170000076293945,green.gif,0.11217298950826997,0.13664638389901923,0.13381296501314224,0.1347467985447405,0.13452426457694347,0.13304562962599153,0.1355766964646216,0.13470453139597552,0.13471291330014626,0.13534256194145225,0.1309242926149717,0.13613861932022803,0.12971392330097237,0.13496012359382195,0.13540268813403702,0.1256942526333633
2.7170000076293945,green.gif,0.11209728414979984,0.1366249485760866,0.13378951803320863,0.1347781133387224,0.13451373690530502,0.1330239931373588,0.1355546352928442,0.13468955572719046,0.1347050901895869,0.13533851627570584,0.1308761916609039,0.13613439484052597,0.12963790501807987,0.1349428009918691,0.13539287571822115,0.12595022481086549
2.7170000076293945,green.gif,0.11219400014805796,0.13664403696585142,0.13380907580960702,0.1347554039663558,0.13451418394019413,0.13303977346894424,0.1355694321476736,0.13469641771273824,0.13472111639036136,0.13535250846773486,0.13093497674882135,0.1361496387302445,0.12972223814990974,0.13495312749780744,0.13541091357599658,0.12533785406802345
2.7170000076293945,green.gif,0.11211087401042867,0.136631497637212,0.13379729644027907,0.13476148364084764,0.1345233034519319,0.1330316374339625,0.13556397832202652,0.13469950225347307,0.1346987869976505,0.13533011201979064,0.13087679515800418,0.1361256329566995,0.12965270187290928,0.1349476960239048,0.13538717602338504,0.12601285439882928
2.7179999351501465,green.gif,0.11214688267074617,0.13662731786099885,0.13379146263497624,0.13477089372526332,0.13450593614649012,0.13302321082630286,0.13555262363584322,0.13468394543933218,0.13471188511990131,0.13534611586882064,0.1309067911990632,0.13614255322725216,0.12967807110286605,0.13493958234066752,0.13540083293924723,0.1255369187041424
2.7179999351501465,green.gif,0.1121851265055092,0.13664137710826124,0.13380811468459544,0.13474313285864983,0.13452133649841982,0.1330398405241776,0.13557086265931875,0.13469961401219535,0.1347065877564654,0.13533672813614941,0.13091953169340273,0.13613233848003609,0.1297151079434285,0.13495411097456347,0.1353968543287342,0.12569148101705085
2.7179999351501465,green.gif,0.11210421319058099,0.13661837716321673,0.1337829689720832,0.13477348652762014,0.1345098477017698,0.13301672882041082,0.1355470804032183,0.13468162085790883,0.13469825055578358,0.13533176604888034,0.13086816738464443,0.13612755520672265,0.12963119949474328,0.13493596135806576,0.13538585727046218,0.1259599254679591
2.7179999351501465,green.gif,0.11221190389536666,0.13663730909077038,0.1338024820449927,0.13474986073373088,0.1345090430389694,0.133032643262463,0.13556147492664752,0.13468816991903423,0.1347132485763131,0.1353449312263645,0.13093336742322056,0.13614201678538523,0.12972219344642083,0.13494635491923748,0.13540288929973712,0.1253531873647198
2.7179999351501465,green.gif,0.11213756199330831,0.136626490846454,0.13379289314662138,0.13475741562335677,0.13451936954490776,0.13302710002983809,0.13555865860684616,0.1346954342359822,0.13469556834644894,0.1353261781127665,0.1308848417860081,0.13612234725026456,0.1296620001986027,0.13494608669830402,0.135383443282061,0.12604059291369832
2.7179999351501465,green.gif,0.11216521110119952,0.13662416626503066,0.13378911570180843,0.13476977613804056,0.13450387978600023,0.13302055096871268,0.13555020964744205,0.13468220200326467,0.13470859941346638,0.1353411314298071,0.13091280381832168,0.13613859696848357,0.12968596126865878,0.13493687777958843,0.13539678727350082,0.12556796527719083
2.7189998626708984,green.gif,0.11219165321489015,0.13663713027681473,0.13380429253629358,0.13473978009698154,0.13451776021930698,0.1330357948584312,0.13556795693253956,0.13469652947146052,0.13470312323607483,0.13533212367679162,0.1309242479114828,0.1361286280904565,0.12972943541162435,0.1349518534483735,0.13539298747694342,0.1257059649474579
2.7189998626708984,green.gif,0.11211125399008441,0.1366146444218927,0.1337802197075152,0.13477111724270788,0.1345066961058016,0.13301523125353232,0.1355463874991402,0.13468361016316535,0.13469395902084816,0.1353275862726672,0.13087156484980164,0.13612380011365416,0.1296439846925717,0.13493408381153152,0.13538176690122686,0.12598925095668448
2.7189998626708984,green.gif,0.11221746947973603,0.13663292814885714,0.1337990398763466,0.13474545744007319,0.13450506442845636,0.13303000575661728,0.13555917269696863,0.1346859347445887,0.134710298146045,0.13534249488621888,0.13093687664710005,0.1361397816109397,0.12972762492032347,0.13494391857909185,0.13540034120086922,0.12536311153925794
2.7189998626708984,green.gif,0.11214384283350025,0.13662416626503066,0.1337910826553205,0.13475408521343293,0.13451677674255094,0.1330257365734263,0.13555689281903419,0.13469315435804777,0.1346926849714142,0.13532432291797672,0.13088622759416432,0.13612033559326359,0.12966253664046962,0.13494382917211403,0.13538102929365983,0.12604772312017956
2.7189998626708984,green.gif,0.11217636462168272,0.13662170757314057,0.13378679112038505,0.13476622221067217,0.13450072819003203,0.13301827109077824,0.13554694629275157,0.13467842455845172,0.13470585014889838,0.13534010324956217,0.13091342966716643,0.13613714410509398,0.12968169208546781,0.1349339944045537,0.13539506618917777,0.12556789822195746
2.7189998626708984,green.gif,0.11220886405812074,0.13663625855878098,0.13380344317000428,0.13473613676263532,0.13451541328613917,0.13303496784388635,0.13556634760693878,0.13469483073888192,0.13470106687558495,0.13533145312445796,0.13093157928366414,0.13612748815148928,0.12973477747854917,0.13494961827392796,0.13539173577925392,0.12569476672348578
2.7200000286102295,green.gif,0.11212077583322237,0.13661285628233627,0.13377760455341392,0.1347669598182392,0.13450392448948914,0.1330120349540752,0.13554290062700516,0.1346793856834633,0.13469000276207957,0.13532418880751,0.1308760351986927,0.1361199332618634,0.1296533947769874,0.13493006049752956,0.13537812356688064,0.12598911684621775
2.7200000286102295,green.gif,0.11221089806686617,0.1366304918087115,0.13379544124548928,0.13474107649815995,0.13450222575691054,0.13302631771878215,0.1355556858248336,0.13468271609338714,0.13470602896285402,0.1353378904268611,0.13094054233319072,0.1361349759858818,0.12973982897279607,0.13493871062263377,0.1353962955351228,0.1253547296350872
2.7200000286102295,green.gif,0.11211963589425515,0.13661898066031702,0.13378538296048437,0.1347470444139295,0.13451203817272642,0.13301972395416783,0.1355516401590872,0.1346862923725,0.13468682881436692,0.1353180867812737,0.1308850429517082,0.1361138312356271,0.12967136557952946,0.1349369448348218,0.13537517313661254,0.1260411070038208
2.7200000286102295,green.gif,0.11214583213875677,0.1366158961195822,0.1337806667424043,0.13476063427455834,0.1344959449167186,0.13301261609943105,0.1355416265775712,0.13467440124444977,0.13469977047440654,0.13533346478145894,0.13091000985026477,0.13613034917477956,0.12968303319013513,0.13492726652947265,0.13538836066584117,0.12556792057370192
2.7200000286102295,green.gif,0.11218009736300676,0.1366315423407009,0.13379810110307946,0.1347303476608214,0.13451096528899256,0.1330300504601062,0.13556067026384713,0.1346903827417353,0.13469720002379418,0.1353271392377781,0.13092237036494855,0.13612295074736486,0.12972483095226656,0.13494512557329244,0.13538693015419603,0.12568689890943752
2.7200000286102295,green.gif,0.11209234441427522,0.1366100846660238,0.13377483293710146,0.13476369646354872,0.13450182342551034,0.1330098444831186,0.13554026312115944,0.13467786576484034,0.13468886282311235,0.13532255713016475,0.13087145309107936,0.13611841334324043,0.1296442976169941,0.1349285405789066,0.1353760001511574,0.12599387776778673
2.7209999561309814,green.gif,0.11219844814520456,0.13662912835229973,0.13379481539664453,0.13474016007663728,0.1345013987423657,0.13302575892517077,0.13555476940331093,0.13468197848582011,0.13470471020993116,0.13533670578440496,0.13093048404818583,0.13613381369517014,0.12972784843776802,0.13493752598017764,0.13539441798858856,0.12534847114663972
2.7209999561309814,green.gif,0.11211842890005456,0.13661837716321673,0.13378502533257308,0.13474628445461803,0.1345117028965596,0.13301963454719,0.13555126017943145,0.13468774523588958,0.13468459363992138,0.13531585160682816,0.13087780098650467,0.13611166311641493,0.1296698456609065,0.13493551432317666,0.13537266974123355,0.12603703898632992
2.7209999561309814,green.gif,0.11214855905158032,0.1366125880614028,0.13377758220166946,0.13475777325126806,0.13449290507947267,0.13300917393078493,0.13553872085079202,0.13467044498568118,0.13469565775342676,0.13532935206047916,0.13090795348977488,0.1361265270264777,0.12968616243435888,0.13492351143640416,0.13538406913090575,0.1255747378557608
2.7209999561309814,green.gif,0.11220370080515156,0.1366278990063547,0.13379515067281136,0.13472706195438647,0.1345071431406907,0.13302631771878215,0.1355575857231123,0.13468669470390018,0.1346934896342146,0.1353231382755206,0.13093258511216463,0.13611970974441884,0.12973339167039294,0.13494145988720177,0.1353835997442722,0.12568403788614724
2.7209999561309814,green.gif,0.11212052996403336,0.13660717893924462,0.13377297774231167,0.13476172951003665,0.1344993423818758,0.1330067375906393,0.1355373350426358,0.13467446829968313,0.13468461599166584,0.13531770680161795,0.13088417123367443,0.13611418886353838,0.12965600993108867,0.13492371260210426,0.13537240152030008,0.12600127619520143
2.7219998836517334,green.gif,0.11222299036061649,0.1366249485760866,0.13379117206229832,0.1347373437568359,0.13449802362895294,0.13302142268674644,0.1355505896270978,0.13467746343344014,0.1346999939918511,0.13533169899364697,0.1309442974262592,0.13612905277360116,0.12974474635657623,0.13493292152081984,0.1353901488053976,0.12535714362348838
2.7219998836517334,green.gif,0.11214422281315599,0.13661372800037003,0.1337804208732153,0.13474205997491598,0.13450761252732427,0.1330157453436548,0.1355461863334401,0.13468264903815377,0.13468081619510844,0.13531211886550412,0.1308881945476764,0.13610808683730208,0.1296839943151467,0.13493263094814192,0.13536958520049872,0.12605042768125865
2.7230000495910645,green.gif,0.1121695249878794,0.1366100399625349,0.13377523526850166,0.134755806297756,0.134491742788761,0.13300776577088425,0.1355363292141353,0.13466769572111317,0.13469362374468133,0.1353271392377781,0.13091743062942393,0.13612467183168792,0.12970111575139948,0.13492205857301456,0.13538241510181606,0.1255945862048371
2.7230000495910645,green.gif,0.11221402731108991,0.13662472505864204,0.1337927366844102,0.1347242009310962,0.1345051985389231,0.13302457428271464,0.1355548811620332,0.13468437012247683,0.13468859460217888,0.1353185338161628,0.1309444985919593,0.1361155299682057,0.12974597570252128,0.13493846475344476,0.13537917409887004,0.12569718071188696
2.7230000495910645,green.gif,0.11212370391174602,0.1366023956659312,0.13376913324226536,0.13475792971347925,0.1344952967161294,0.13300380951211566,0.13553290939723364,0.1346726354566378,0.13468070443638616,0.13531395170854946,0.13089181553027815,0.13611103726757018,0.12965790982936737,0.13492210327650347,0.13536853466850932,0.12603116047753818
2.7239999771118164,green.gif,0.11223036643628674,0.13662253458768542,0.1337892274605307,0.13473575678297958,0.1344953861231072,0.13301965689893447,0.13554779565904088,0.1346758317560949,0.1346989434598617,0.13533000026106837,0.13095071237691788,0.13612824811080076,0.1297420194437527,0.13493178158185262,0.13538898651468592,0.12537296865856273
2.7239999771118164,green.gif,0.11215723152842898,0.1366135938899033,0.13378077850112657,0.13474197056793816,0.13450698667847952,0.13301516419829895,0.13554576165029544,0.13468271609338714,0.13467960920090785,0.1353096825253585,0.13089210610295607,0.13610649986344575,0.1296778028819326,0.13493142395394134,0.13536761824698665,0.12605733437029534
2.7239999771118164,green.gif,0.11218329366246386,0.1366093470584568,0.1337741176812789,0.1347558957047338,0.1344900887596713,0.13300617879702792,0.13553454107457888,0.1346684333286802,0.13469089683185778,0.13532392058657652,0.13091318379797742,0.13612174375316427,0.12969072219022776,0.13491995750903577,0.13537926350584786,0.12561407692600213
2.7239999771118164,green.gif,0.11222542670076212,0.136623495712697,0.13379041210298684,0.13472328450957352,0.1345031421784332,0.1330220485355912,0.13555186367653174,0.13468264903815377,0.13468787934635632,0.1353172821184733,0.130930394641208,0.13611425591877174,0.12973104473722513,0.1349364977999327,0.13537805651164728,0.12569199510717333
2.7249999046325684,green.gif,0.11213523741188496,0.13660237331418673,0.1337678144893425,0.13475822028615717,0.13449507319868484,0.1330018872620925,0.1355316800512886,0.1346703332269589,0.13467869277938518,0.13531144831317046,0.1308770410271932,0.13610837740998,0.1296512490095197,0.1349197339915912,0.13536612068010814,0.12602881354437037
2.7249999046325684,green.gif,0.11223376390144395,0.13662025470975098,0.13378600880932912,0.13473522034111265,0.13449308389342832,0.13301655000645518,0.1355447781735394,0.1346741330235163,0.13469386961387034,0.13532501582205483,0.13094586204837108,0.1361231295613205,0.12974543926065435,0.13492755710215057,0.13538366679950556,0.12537410859752995
2.7249999046325684,green.gif,0.11215980197904134,0.13660892237531214,0.1337756152481574,0.13473877426848105,0.13450242692261064,0.13300971037265186,0.13554062074907072,0.13467784341309588,0.13467451300317204,0.13530478749332278,0.1308947883122907,0.1361018730523435,0.12968017216684485,0.13492648421841671,0.13536272321495094,0.12606037420754126
2.7260000705718994,green.gif,0.11218371834560852,0.13660422850897652,0.133769312056221,0.13475392875122175,0.13448512667240223,0.1330009931923143,0.13552895313846505,0.1346623313024439,0.1346859347445887,0.1353192267202409,0.13091622363522334,0.1361174745699733,0.1296890011059047,0.1349149954217667,0.13537392143892304,0.12562420226624038
2.7260000705718994,green.gif,0.11222904768336388,0.13661960650916177,0.13378692523085178,0.13472236808805085,0.13449871653303105,0.13301806992507814,0.1355479297695076,0.1346781786892627,0.1346821349480313,0.13531191769980402,0.13093783777211163,0.1361092714797582,0.12973833140591756,0.13493093221556332,0.13537240152030008,0.125695660793264
2.7260000705718994,green.gif,0.11213914896716463,0.13659649480539499,0.13376186892531738,0.13475417462041075,0.13448865824802617,0.1329962322707453,0.1355258238942413,0.13466391827630023,0.1346720766630264,0.13530536863867862,0.13087963382955,0.13610256595642162,0.1296551382130549,0.134913587261866,0.13535968337770501,0.12604761136145728
2.7260000705718994,green.gif,0.11224064823873618,0.136615493788182,0.13378115848078231,0.13473137584106634,0.13448785358522578,0.13301192319535293,0.1355400843072038,0.1346693273984584,0.13468991335510175,0.1353217301156199,0.1309423528244916,0.13612029088977468,0.12974239942340843,0.13492382436082653,0.13538033638958172,0.12538644676046928
2.7260000705718994,green.gif,0.11216290887152063,0.13660722364273353,0.13377393886732325,0.13473660614926888,0.13450045996909857,0.13300857043368464,0.13553910083044776,0.13467645760493965,0.13467272486361562,0.13530389342354457,0.13089087675701103,0.13610120250000984,0.12968287672792395,0.13492592542480533,0.1353618962004061,0.12606504572213242
2.9010000228881836,green.gif,0.11218579705784286,0.136601993334531,0.13376723334398666,0.13475223001864314,0.13448271268400105,0.13299945092194687,0.13552758968205328,0.13466224189546608,0.1346827831486205,0.13531645510392845,0.13092263858588202,0.13611514998854995,0.1297030603531671,0.13491291670953234,0.13537170861622197,0.12564961619968606
2.9019999504089355,green.gif,0.11223166283746515,0.13661730427948288,0.133785070036062,0.13471977528569404,0.13449623548939652,0.13301625943377726,0.13554564989157317,0.13467661406715084,0.1346801903462637,0.1353097272288474,0.1309503547490066,0.1361079303750909,0.12974845674615582,0.1349289429103068,0.13537072513946594,0.12572228172091027
2.9019999504089355,green.gif,0.1121438651852447,0.13659412552048272,0.1337605054689056,0.13475214061166532,0.13448666894276964,0.13299417591025542,0.1355230299261844,0.13466119136347668,0.134670780261848,0.13530349109214437,0.13089042972212192,0.13610153777617667,0.1296601450038129,0.13491157560486502,0.1353581858108265,0.12606401754188748
2.9029998779296875,green.gif,0.11225166764875265,0.13661366094513666,0.1337793703412259,0.13472965475674328,0.13448593133520262,0.1330094421517184,0.13553767031880262,0.13466646637516813,0.13468781229112295,0.13531947258942992,0.1309471584495495,0.1361183239362626,0.12974923905721175,0.13492123155846972,0.13537785534594718,0.12545356904906857
2.9029998779296875,green.gif,0.11217900212752845,0.13660447437816553,0.13377065316088832,0.13473233696607792,0.1344968389864968,0.13300575411388327,0.13553577042052392,0.13467426713398303,0.13466825451472456,0.13529919955720895,0.13089067559131093,0.13609653098541868,0.12968077566394515,0.1349211868549808,0.13535682235441474,0.1260984168766042
2.9029998779296875,green.gif,0.1121937766306134,0.13659801472401795,0.13376283005032896,0.1347473573383519,0.13447880112872138,0.13299500292480027,0.13552251583606192,0.13465696688377463,0.1346795868491634,0.1353130352870268,0.1309200010800363,0.1361119313373484,0.12969867941125385,0.13490922867169722,0.13536822174408694,0.1257070601829362
