Timestamp,Filename,1/Fp1,2/Fp2,3/Cz,4/Pz,5/P7,6/P8,7/O1,8/O2,9/CP5,10/CP6,11/CP1,12/CP2,13/PO3,14/PO4,15/P3,16/P4
0.09800004959106445,car (1).jpg,0.11010715187873267,0.13760864884956464,0.13479199377202913,0.13548199212336445,0.13549473261770398,0.13398020076515685,0.13653344053428657,0.13568720348920862,0.1356794697856271,0.13633944974415896,0.1320881255970151,0.13716185982964751,0.13036994700073565,0.13590341191332483,0.1363543807094551,0.12680220625426844
0.09800004959106445,car (1).jpg,0.11019481542048638,0.1376183271549138,0.13480037567619987,0.1354720232453374,0.1354865742309778,0.13398683923326007,0.13653699446165496,0.1356845659833629,0.13569160678286632,0.13635254786640977,0.1321264364870115,0.13717538263504298,0.1304211771990272,0.1359062282331262,0.1363672329625169,0.1263349206846858
0.09800004959106445,car (1).jpg,0.11014586510012926,0.13761492968975658,0.13479954866165503,0.13546484833536723,0.13549795126890554,0.13398788976524947,0.13654144245880157,0.13569227733519998,0.13567982741353837,0.13633784041855818,0.1321015366436883,0.13715989287613545,0.13040148531216209,0.13590884338722747,0.13635511831702213,0.12674735507337512
0.09800004959106445,car (1).jpg,0.1101380419895699,0.13760598899197446,0.13478843984466074,0.1354813215710308,0.13548500960886592,0.13397704916918865,0.13652794200515056,0.13567877688154897,0.13568293430601766,0.1363454847151619,0.13209460760290714,0.13716758187622807,0.13037128810540297,0.13589829336384457,0.1363579346368235,0.12656614948107595
0.09900021553039551,car (1).jpg,0.11019456955129737,0.13761915416945864,0.13480310258902342,0.13545932745448677,0.13549135750429123,0.13399066138156193,0.13654188949369067,0.13568894692527614,0.13568765052409773,0.13634555177039526,0.132132694975459,0.1371685206494952,0.13044332777778242,0.1359108773959729,0.13636443899446,0.12644348310750522
0.09900021553039551,car (1).jpg,0.11010536373917625,0.13760355265182883,0.13478759047837144,0.13547933226577427,0.1354915139665024,0.13397660213429954,0.13653078067669638,0.13568324723044003,0.13567604996872543,0.13633625344470185,0.1320960828180412,0.1371586188267015,0.13037864182932876,0.1358994780063007,0.13635096089255344,0.1268107222689059
0.09900021553039551,car (1).jpg,0.11019144030707363,0.1376139238612561,0.13479679939708702,0.13547115152730363,0.13548389202164315,0.13398328530589168,0.1365341781418536,0.1356803191519164,0.13568899162876505,0.13634982095358622,0.1321322926440588,0.13717281218443061,0.1304278827223638,0.13590312134064692,0.13636475191888237,0.12635624424889616
0.09900021553039551,car (1).jpg,0.1101476979431746,0.13761003465772087,0.1347954582924197,0.13546350723069991,0.13549444204502606,0.13398355352682514,0.13653764266224416,0.13568870105608713,0.13567638524489226,0.13633236424116663,0.1321167358299179,0.13715593661736686,0.13041731034723644,0.13590482007322552,0.136351676148376,0.12676107904447068
0.09900021553039551,car (1).jpg,0.11014157356519384,0.13760209978843924,0.13478524354520363,0.13548098629486396,0.13548226034429792,0.13397275763425323,0.1365253715545382,0.13567689933501473,0.13567989446877174,0.13634114847673756,0.13211899335610788,0.1371640726523486,0.1304013735534398,0.1358955217475321,0.1363547830408553,0.12660714258040698
0.09900021553039551,car (1).jpg,0.11019642474608717,0.13761595787000153,0.13480028626922205,0.13545968508239806,0.1354886752949566,0.1339865710123266,0.13653960961575623,0.1356864211781527,0.13568619766070814,0.1363423331191937,0.13214456375176475,0.1371660619576051,0.13045457070524344,0.1359085304628051,0.13636220382001446,0.126460850412947
0.10000014305114746,car (1).jpg,0.11011370093985808,0.13760093749772756,0.13478419301321423,0.1354780135128514,0.13548860823972322,0.13397195297145284,0.13652653384524988,0.13567812868095977,0.13567305483496842,0.13633129135743277,0.13210750455945786,0.13715423788478825,0.1303864202363992,0.13589561115450993,0.1363470269855293,0.12682755313248076
0.10000014305114746,car (1).jpg,0.1102010068537005,0.13760985584376523,0.1347919043650513,0.13546938573949166,0.13547892993437408,0.13397839027385597,0.13652928310981788,0.13567692168675918,0.13568378367230696,0.13634289191280508,0.13213457252199323,0.1371669113238944,0.13043266599567724,0.13589898626792268,0.13635911927927963,0.12637528793517208
0.10000014305114746,car (1).jpg,0.11016148896950352,0.13760672659954148,0.13479033974293944,0.13546089207659864,0.1354889658676345,0.1339786808465339,0.13653290409241964,0.1356843648176628,0.1356725183931015,0.13632780448529774,0.1321146347659391,0.13715162273068698,0.13041809265829238,0.1359007744074791,0.1363474740204184,0.12676058730609266
0.10000014305114746,car (1).jpg,0.11014456869895085,0.13759827764013738,0.1347809520102682,0.13547870641692952,0.13547774529191794,0.1339681755266399,0.13652023065331348,0.13567117728843417,0.1356771675559482,0.1363374827906469,0.13212060268170867,0.13716054107672465,0.13039811019874933,0.13589129726783006,0.13635116205825354,0.1266125293508207
0.2840001583099365,car (1).jpg,0.11020299615895703,0.1376116216315772,0.1347956594581198,0.13545709228004124,0.1354834226350096,0.13398196655296882,0.13653455812150933,0.13568150379437252,0.1356807661868055,0.13633616403772403,0.13214577074596534,0.13716054107672465,0.1304609856559021,0.1359034789685582,0.1363562359042449,0.12646221386935877
0.2840001583099365,car (1).jpg,0.11011265040786868,0.13759463430579116,0.13477873918756714,0.13547365492268262,0.13548246150999801,0.13396710264290604,0.13652186233065872,0.13567600526523652,0.1356689644657331,0.13632731274691973,0.13211441124849455,0.1371504604399753,0.1304040781145189,0.1358923701515639,0.13634280250582725,0.12683841608028604
0.2850000858306885,car (1).jpg,0.11019410016466381,0.13760581017801882,0.13478875276908311,0.13546730702725732,0.1354757112831725,0.13397479164299866,0.1365270702871168,0.13567388184951326,0.13568257667810638,0.13634074614533737,0.1321474918302884,0.13716563727446046,0.13045372133895414,0.13589659463126597,0.1363576887676345,0.1263903306591905
0.2850000858306885,car (1).jpg,0.1101578009316684,0.13760312796868418,0.13478861865861638,0.13545843338470856,0.13548715537633363,0.13397619980289935,0.13653156298775232,0.13568134733216133,0.1356704173291227,0.13632554695910776,0.13213826055982836,0.13715010281206402,0.13044864749296278,0.13589851688128912,0.13634559647388417,0.12677643469291147
0.2850000858306885,car (1).jpg,0.11014765323968569,0.13759369553252404,0.13477784511778892,0.1354752195447945,0.13547423606803846,0.1339654262620719,0.13651830840329032,0.13566894211398864,0.13567323364892406,0.13633361593885612,0.1321454354697985,0.13715770240517883,0.1304278827223638,0.13588839154105087,0.1363476304826296,0.12665383537457411
0.28600001335144043,car (1).jpg,0.11020938875787124,0.13760690541349713,0.13479232904819596,0.1354538065736063,0.1354794216727521,0.13397930669537864,0.13653158533949677,0.13567938037864927,0.13567810632921531,0.13633386180804513,0.13216611083341967,0.13715852941972367,0.1304739943711751,0.13590088616620138,0.13635350899142135,0.1264946015470745
0.28600001335144043,car (1).jpg,0.1101251897365081,0.13759130389586732,0.13477556523985448,0.1354716209139372,0.13547908639658526,0.1339646663027604,0.13651819664456805,0.13567225017216802,0.13566449411684203,0.13632210479046164,0.13212319548406548,0.13714587833236197,0.13040206645751792,0.13588758687825048,0.13633759454936917,0.12687022261264594
0.28600001335144043,car (1).jpg,0.11021097573172757,0.13759977520701588,0.13478271779808018,0.13546355193418883,0.13546994453310304,0.1339695166313072,0.13652034241203576,0.1356681150994438,0.13567694403850364,0.1363347782295678,0.13214986111520066,0.1371599599313688,0.13044685935340636,0.13589051495677412,0.13635165379663156,0.126418583264182
0.28600001335144043,car (1).jpg,0.11017056377775238,0.13759910465468222,0.13478363421960285,0.13545608645154075,0.13548234975127574,0.13397148358481928,0.13652628797606087,0.13567622878268107,0.13566471763428659,0.13631906495321572,0.132130683318458,0.13714357610268307,0.13043970679518066,0.13589201252365263,0.13633924857845886,0.12679306439078622
0.28600001335144043,car (1).jpg,0.11016135485903679,0.13758783937547675,0.1347692620479181,0.13547045862322551,0.1354672176202795,0.13395684319220105,0.13651055234796433,0.13566111900342928,0.135666259904654,0.1363251222759631,0.1321270399841118,0.1371491640387969,0.1304144269722017,0.13588054607874706,0.13634009794474816,0.12667180617711618
0.2870001792907715,car (1).jpg,0.11022919240345865,0.1376021668436726,0.1347849082690368,0.13544982796309327,0.1354735655157048,0.1339715729917971,0.13652463394697117,0.13567140080587872,0.1356706184948228,0.136324429371885,0.13215341504256906,0.13714974518415274,0.13047263091476333,0.13589216898586381,0.1363457752878398,0.12649592029999737
0.2870001792907715,car (1).jpg,0.11013996423959306,0.13758435250334172,0.1347676080188284,0.13546569770165653,0.13547240322499313,0.1339563738055675,0.13651113349332017,0.13566402473020847,0.13565868266328365,0.13631510869444713,0.1321165793677067,0.1371395080851922,0.13040275936159604,0.1358820212938811,0.1363318725027886,0.12687715165342708
0.2870001792907715,car (1).jpg,0.1102313158191819,0.13759467900928007,0.13477648166137715,0.1354598638963537,0.13546399896907793,0.13396359341902656,0.1365144191997551,0.13566170014878512,0.13567115493668971,0.1363289220725205,0.13214201565289685,0.1371540590708326,0.13044565235920577,0.13588494937240475,0.13634564117737308,0.12643201666259965
0.2870001792907715,car (1).jpg,0.1101961565251537,0.13759409786392424,0.13477742043464427,0.1354514596404385,0.13547555482096132,0.13396594035219436,0.13652038711552467,0.1356694562041111,0.13565921910515058,0.13631343231361298,0.1321238883881436,0.13713827873924717,0.13043364947243327,0.13588651399451662,0.13633339242141157,0.12680006048680073
0.2870001792907715,car (1).jpg,0.11018502535641496,0.13758533598009776,0.13476642337637226,0.13546922927728047,0.13546308254755526,0.1339545186107777,0.1365064172752401,0.1356573639103608,0.13566422589590857,0.13632320002593995,0.13212406720209924,0.13714757706494057,0.130404525149408,0.13587828855255707,0.13633754984588026,0.12669292857562645
0.28800010681152344,car (1).jpg,0.11024680557808943,0.13760073633202746,0.13478396949576968,0.1354491127072707,0.13547059273369225,0.13396982955572959,0.13652199644112545,0.13566871859654409,0.13566883035526636,0.1363236247090846,0.13216526146713037,0.13714902992833017,0.13047882234797745,0.13588944207304027,0.13634405420351675,0.1265124158874054
0.28800010681152344,car (1).jpg,0.11015690686189018,0.13758193851494055,0.13476552930659405,0.1354637083964,0.13546920692553602,0.13395409392763305,0.13650849598747444,0.13566127546564047,0.13565600045394902,0.13631349936884635,0.13212545301025547,0.13713758583516905,0.1304153880972133,0.13587826620081261,0.13633001730799882,0.12690442078166256
0.28800010681152344,car (1).jpg,0.11023464622910574,0.13759199679994544,0.13477382180378697,0.1354578075358638,0.13546149557369894,0.13396091120969192,0.1365119158043761,0.13565776624176099,0.13566742219536568,0.13632594929050795,0.132154197353625,0.13715090747486441,0.13045685058317788,0.13588070254095824,0.13634291426454953,0.126458347017568
0.2890000343322754,car (1).jpg,0.11020444902234662,0.1375913709511007,0.1347752076119432,0.1354488668380817,0.13547289496337114,0.133963615770771,0.13651774960967894,0.13566912092794428,0.13565794505571663,0.13631273940953487,0.1321363830132941,0.13713747407644677,0.1304430372051045,0.13588635753230544,0.13633319125571147,0.1268222334173004
0.2890000343322754,car (1).jpg,0.11018442185931467,0.13758307845390777,0.13476467994030475,0.13546833520750226,0.13546212142254369,0.13395333396832157,0.13650632786826228,0.1356571627446607,0.13566049315458453,0.13632029429916076,0.13212576593467784,0.13714420195152782,0.13040684973083136,0.13587569575020025,0.13633500174701235,0.12672077884921776
0.2890000343322754,car (1).jpg,0.11023560735411732,0.13759664596279214,0.13477963325734535,0.13544719045724754,0.13546799993133543,0.13396750497430623,0.13652199644112545,0.13566603638720945,0.13566563405580925,0.13632085309277214,0.1321512916268458,0.1371451183730505,0.1304569846936446,0.13588671516021672,0.13634143904941548,0.12651802617526367
0.2890000343322754,car (1).jpg,0.11014472516116204,0.13757907749165027,0.134761550696081,0.13546319430627754,0.13546744113772405,0.13395223873284326,0.136509211243297,0.13565877207026147,0.1356514630498246,0.1363088278542552,0.13210187191985512,0.13713112618102147,0.13037714426245026,0.13587424288681066,0.13632541284864103,0.12690772883984194
0.29000020027160645,car (1).jpg,0.11021607192946338,0.13758743704407655,0.13476787623976186,0.13545700287306342,0.13545794164633054,0.13395715611662343,0.13651111114157571,0.1356554640120821,0.13566462822730876,0.13632340119164005,0.13211559589095068,0.13714565481491742,0.1303996301173723,0.13587683568916747,0.13633920387496995,0.12644808756686302
0.29000020027160645,car (1).jpg,0.11017858805401183,0.137586967657443,0.1347693514548959,0.13544844215493704,0.1354700115883364,0.13396024065735826,0.13651792842363458,0.13566380121276392,0.13565389938997022,0.136308671392044,0.13209007019878272,0.1371300532972876,0.13038901303875602,0.1358800766921135,0.13632856444460922,0.12679384670184216
0.6019999980926514,car (1).jpg,0.11014830144027489,0.13757648468929345,0.1347562533326451,0.13546596592259,0.1354571146317857,0.13394758956999656,0.136503466844972,0.13565018900039064,0.1356556651777822,0.13631564513631406,0.13208146477716742,0.13713593180607936,0.13035130564585992,0.13586858789546347,0.13632934675566516,0.12668568661042293
0.6019999980926514,car (1).jpg,0.11018176200172448,0.13759083450923376,0.134772301885164,0.13544453059965736,0.1354624119952216,0.1339618723347035,0.13651750374048993,0.13565899558770603,0.13566239305286323,0.1363178803107596,0.13211224312928238,0.1371390163468142,0.13040736382095383,0.1358807695961916,0.13633759454936917,0.12647379207298662
0.6019999980926514,car (1).jpg,0.11008775056454546,0.1375743612735702,0.1347562086291562,0.135460467393454,0.13546243434696606,0.1339475672182521,0.13650523263278397,0.13565244652658062,0.13565007724166836,0.13630744204609896,0.1320726805415965,0.13712743814318634,0.13034214143063325,0.1358700184071086,0.13632360235734015,0.12685947142356294
0.6030001640319824,car (1).jpg,0.11016441704802717,0.13758473248299746,0.1347646575885603,0.13545494651257353,0.13545434301547324,0.13395357983751058,0.13650784778688524,0.13564994313120163,0.13566149898308502,0.13631998137473839,0.13210160369892165,0.13714087154160398,0.13037823949792857,0.1358710242356091,0.13633594052027947,0.12640897201406623
0.6030001640319824,car (1).jpg,0.11012020529749457,0.13758377135798588,0.13476577517578306,0.1354437035851125,0.13546518361153406,0.1339563738055675,0.13651285457764323,0.13565843679409464,0.13565117247714667,0.13630670443853193,0.1320823811986901,0.1371273040327196,0.1303701258146913,0.13587594161938926,0.1363257257730634,0.12676651051837332
0.6030001640319824,car (1).jpg,0.11009409845997077,0.13757255078226932,0.13475256529480997,0.135460713262643,0.13545208548928325,0.13394318627633886,0.1364975212809469,0.135644511657299,0.13565144069808013,0.13631151006358982,0.13207516158523103,0.1371318637885885,0.13034207437539988,0.13586284349713845,0.13632494346200746,0.1266661958892579
0.6030001640319824,car (1).jpg,0.11015049191123151,0.13758602888417587,0.1347680550537175,0.13543842857342106,0.13545673465212996,0.13395655261952313,0.1365108205688978,0.13565226771262498,0.13565705098593842,0.1363124711886014,0.13210636462049063,0.13713389779733393,0.13040691678606472,0.13587314765133235,0.13633218542721098,0.12645130621806458
0.6030001640319824,car (1).jpg,0.11004552811926939,0.13756962270374568,0.13475227472213205,0.1354535160009284,0.13545720403876352,0.13394229220656065,0.13649895179259203,0.13564589746545522,0.13564583041022185,0.13630239055185206,0.1320685678206167,0.13712303484952865,0.13034779642198044,0.13586402813959458,0.13631879673228225,0.12685321293511545
0.6030001640319824,car (1).jpg,0.11010889531480018,0.13757871986373899,0.1347596060943134,0.1354474139746921,0.13544837509970367,0.13394788014267447,0.13650094109784855,0.1356437069944986,0.1356559557504601,0.13631370053454644,0.13209366882964002,0.13713517184676788,0.13038885657654484,0.1358643187122725,0.13632983849404318,0.12640485929308645
0.6040000915527344,car (1).jpg,0.11007226080563794,0.13757793755268305,0.1347613495303809,0.13543614869548662,0.13545917099227558,0.13395040588979792,0.13650612670256218,0.13565027840736846,0.13564493634044364,0.13629914954890604,0.13207440162591955,0.13712028558496064,0.13038038526539628,0.13586780558440753,0.13631850615960434,0.1267555134601013
0.6040000915527344,car (1).jpg,0.1100491267501267,0.13756783456418925,0.1347492572366306,0.1354541642015176,0.1354470116432919,0.13393835829953651,0.13649229097274435,0.13563903547990744,0.13564864673002322,0.1363079784879659,0.13207044536715096,0.1371285557304091,0.1303577653000075,0.13585953543895907,0.1363214789416169,0.12667287906085004
0.6040000915527344,car (1).jpg,0.11011144341366809,0.13758433015159727,0.13476736214963939,0.1354349640530305,0.1354542089050065,0.13395509975613354,0.1365085183392189,0.13565139599459122,0.13565593339871565,0.1363107277525339,0.1321026318791666,0.13713222141649978,0.13042227243450552,0.13587189595364285,0.13633044199114347,0.12645738589255642
0.6040000915527344,car (1).jpg,0.1100171190520667,0.13756816984035608,0.13475109007967592,0.1354499173700711,0.135454968864318,0.13394063817747096,0.13649658250767976,0.13564341642182068,0.1356420529654089,0.13629888132797258,0.1320547767942878,0.13711912329424897,0.13035535131160633,0.13586089889537084,0.13631499693572485,0.1268571915456285
0.6040000915527344,car (1).jpg,0.11009374083205949,0.13757702113116038,0.1347579967687126,0.13544468706186855,0.13544589405606913,0.13394638257579597,0.13649877297863638,0.13564281292472039,0.1356532064858921,0.13631159947056765,0.13207938606493308,0.13713224376824423,0.13039218698646868,0.13586244116573826,0.136327178636453,0.1264185385606931
0.6050000190734863,car (1).jpg,0.11006171078225503,0.1375750094741594,0.13475784030650143,0.13543174540182892,0.135455460602696,0.13394745545952982,0.13650315392054962,0.13564918317189015,0.13564131535784188,0.13629619911863794,0.13205665434082203,0.13711617286398087,0.13038340275089774,0.13586510102332844,0.13631510869444713,0.1267553122944012
0.6060001850128174,car (1).jpg,0.110033972267386,0.13756481707868778,0.13474606093717348,0.13545031970147128,0.13544453059965736,0.1339357207936908,0.1364895640599208,0.1356363085670839,0.13564547278231057,0.13630545274084244,0.13205578262278828,0.13712497945129626,0.13035459135229485,0.13585645089822423,0.13631841675262651,0.126677148244041
0.6060001850128174,car (1).jpg,0.11009941817515113,0.13758122325911798,0.1347638976292488,0.13543094073902853,0.1354518619718387,0.1339521716776099,0.13650563496418416,0.13564822204687857,0.13565054662830192,0.13630630210713174,0.13208405757952424,0.13712694640480833,0.13041366701289023,0.1358676714739408,0.13632545755212994,0.12645443546228832
0.6060001850128174,car (1).jpg,0.11000614434553914,0.13756293953215354,0.1347463962133403,0.13544392710255707,0.13545123612299395,0.13393612312509098,0.13649175453087742,0.13564022012236357,0.1356363532705728,0.13629315928139202,0.1320540168349763,0.13711297656452376,0.13035720650639612,0.13585540036623484,0.1363095207583333,0.12686718277540002
0.6060001850128174,car (1).jpg,0.11008006156445284,0.13756977916595686,0.13475227472213205,0.13543789213155413,0.13544097667228897,0.13393967705245938,0.13649249213844444,0.1356355039042835,0.13564781971547837,0.13630648092108738,0.13208506340802473,0.13712728168097515,0.13039641146617073,0.13585727791276908,0.13632248477011738,0.1264306979096768
0.6060001850128174,car (1).jpg,0.11004760683150373,0.13757109791887973,0.13475643214660074,0.1354280126605049,0.13545349364918394,0.133944616787984,0.13649975645539242,0.1356453610235883,0.13563802965140695,0.13629289106045855,0.1320697301113284,0.13711358006162405,0.13038731430617742,0.13586215059306034,0.13631276176127932,0.12676525882068382
0.6070001125335693,car (1).jpg,0.11002275169166943,0.1375595644187408,0.13474290934120528,0.13544638579444715,0.1354409543205445,0.1339307140029328,0.13648473608311845,0.13563016183735868,0.13563914723862971,0.1362986131070391,0.13206396336125892,0.13711889977680441,0.13035935227386383,0.13585008065105447,0.1363126723543015,0.1266963036890392
0.6070001125335693,car (1).jpg,0.1100918856372697,0.13757489771543713,0.13475938257686884,0.13542658214885975,0.13544589405606913,0.13394602494788468,0.13649915295829212,0.1356413600613308,0.1356469032939557,0.1363025693658077,0.1320936241261511,0.13712357129139557,0.13041874085888158,0.1358636705116833,0.13632201538348382,0.12646306323564807
0.6070001125335693,car (1).jpg,0.10999961763615819,0.13756027967456336,0.13474476453599507,0.13544307773626776,0.13544797276830348,0.13393368678494535,0.13648822295525348,0.13563749320954002,0.13563331343332688,0.13629041001682402,0.13205343568962047,0.13711051787263367,0.13035535131160633,0.13585329930225604,0.1363065703280652,0.12687111668242415
0.6080000400543213,car (1).jpg,0.1100761276574287,0.13756747693627797,0.13475012895466434,0.13543733333794275,0.13543766861410958,0.13393735247103603,0.13648869234188704,0.13563206173563738,0.13564477987823245,0.136303664601286,0.1320845269661578,0.13712468887861834,0.130401284146462,0.13585484157262345,0.13631931082240473,0.1264335365812226
0.6080000400543213,car (1).jpg,0.11004809856988175,0.13756852746826737,0.13475319114365472,0.13542606805873728,0.1354493585764597,0.13394157695073808,0.13649629193500185,0.1356411588956307,0.13563286639843777,0.13628830895284522,0.13206631029442673,0.13710904265749962,0.1304009712220396,0.13585830609301403,0.1363074196943545,0.12676454356486125
0.6080000400543213,car (1).jpg,0.11002755731672732,0.13755587638090566,0.13473846134405867,0.13544343536417905,0.13543583577106424,0.13392707066858658,0.13647948342317145,0.13562801606989097,0.1356340510408939,0.13629454508954825,0.1320578166315337,0.137114854111058,0.13036549900358904,0.13584793488358676,0.13630768791528797,0.12670647373276636
0.6080000400543213,car (1).jpg,0.11009754062861689,0.13757232726482477,0.13475571689077817,0.13542436932615867,0.13544198250078945,0.13394287335191649,0.13649483907161225,0.135639258997352,0.13563981779096337,0.13629644498782695,0.132092931222073,0.1371175586721371,0.1304327330509106,0.1358583731482474,0.13631548867410287,0.12647041695957387
0.6080000400543213,car (1).jpg,0.11001363217993167,0.13755417764832706,0.1347379472539362,0.1354375121518984,0.13544162487287817,0.13392733888952005,0.1364813162662168,0.1356323076048264,0.1356260491163789,0.13628437504582108,0.13205213928844206,0.13710412527371946,0.13036773417803457,0.1358483148632425,0.13629999891519534,0.1268814431883625
0.6090002059936523,car (1).jpg,0.11010733069268831,0.13756258190424225,0.1347440939836614,0.13543308650649624,0.13543192421578457,0.1339314069070109,0.13648259031565074,0.13562808312512434,0.13563697911941755,0.1362967132087604,0.13207811201549913,0.13711702223027017,0.13040521805348612,0.13584885130510943,0.13631211356069012,0.12644390779064987
0.6090002059936523,car (1).jpg,0.11009655715186085,0.13756202311063087,0.13474561390228437,0.13542032366041226,0.1354426530531231,0.13393420087506783,0.13648837941746467,0.13563586153219478,0.1356255573780009,0.13628084347019714,0.13205663198907758,0.137101107788218,0.13039656792838192,0.13585164527316634,0.1363007141710179,0.12675978264329227
0.6100001335144043,car (1).jpg,0.11007380307600535,0.1375505119622364,0.13473137584106634,0.13543878620133235,0.13543111955298417,0.13392058866269455,0.1364727108446015,0.1356220034506325,0.13562797136640206,0.1362879736766784,0.13204089636098104,0.1371074109801544,0.13035658065755137,0.1358406705666388,0.13630205527568523,0.12669201215410378
0.6110000610351562,car (1).jpg,0.1101447475129065,0.1375665158112664,0.13474840787034129,0.13541844611387802,0.1354369086547981,0.13393630193904663,0.13648815590002011,0.1356321511426152,0.13563454277927192,0.13629087940345758,0.13207044536715096,0.1371110990179895,0.1304165280361805,0.13585258404643347,0.13631010190368914,0.12643818574406931
0.6110000610351562,car (1).jpg,0.11005013257862718,0.13755033314828075,0.13473238166956683,0.1354325053611404,0.13543813800074314,0.13392293559586235,0.13647729295221483,0.13562732316581286,0.13562133289829884,0.13627939060680755,0.1320263677270851,0.13709855968935009,0.13035018805863716,0.13584299514806214,0.13629505917967072,0.12684921197285795
0.6110000610351562,car (1).jpg,0.11012223930624,0.13755659163672823,0.13473752257079155,0.13542723034944895,0.1354272527011934,0.13392622130229728,0.13647729295221483,0.1356224057820327,0.1356323523083153,0.13629264519126955,0.13206168348332448,0.13711241777091238,0.13039109175099037,0.135844313900985,0.1363073749908656,0.12641976790663814
0.6110000610351562,car (1).jpg,0.11009465725358215,0.13755907268036277,0.13474284228597191,0.13541681443653278,0.13544055198914431,0.13393317269482288,0.1364866136296527,0.13563447572403856,0.13562401510763347,0.1362802176213524,0.13205426270416531,0.1371001019597175,0.13039719377722667,0.13585052768594358,0.1362990154384393,0.12674608102394117
0.6110000610351562,car (1).jpg,0.11006582350323481,0.13754648864823443,0.13472858187300943,0.13543503110826385,0.13542877261981637,0.1339187111161603,0.1364708109463228,0.1356186506889642,0.1356239033489112,0.13628433034233217,0.1320467748697728,0.13710363353534144,0.1303625709250654,0.13583745191543722,0.13629765198202753,0.12668783237789064
0.6110000610351562,car (1).jpg,0.11013730438200288,0.13755987734316316,0.13474317756213874,0.13541241114287508,0.13543187951229566,0.133931362203522,0.13648404317904034,0.13562779255244642,0.13563087709318125,0.13628732547608918,0.13207851434689932,0.13710743333189884,0.13042949204796458,0.13584905247080953,0.1363063244588762,0.1264339389126228
0.6120002269744873,car (1).jpg,0.1100514736832945,0.1375459075028786,0.1347294982945321,0.1354280573639938,0.13543523227396395,0.13391989575861643,0.13647420841148,0.1356243950872892,0.13561692960464114,0.1362751661271055,0.13204737836687308,0.13709446932011476,0.13037048344260257,0.13583919535150474,0.13629119232787995,0.126855939847939
0.6120002269744873,car (1).jpg,0.11011922182073854,0.1375513613285257,0.1347341474573788,0.13542273764881343,0.13542403404999184,0.13392197447085077,0.13647306847251278,0.13561802484011945,0.13562958069200284,0.1362895159470458,0.1320720770444962,0.13710933323017754,0.1304025805476404,0.13584078232536106,0.13630475983676432,0.12642325477877317
0.6120002269744873,car (1).jpg,0.11009456784660433,0.13755491525589408,0.134739802448726,0.1354120088114749,0.13543713217224265,0.13392854588372063,0.13648263501913965,0.13562942422979166,0.13562017060758716,0.1362759707899059,0.13206000710249033,0.13709578807303763,0.13040329580346297,0.13584612439228588,0.13629552856630428,0.12673342993657946
0.9320001602172852,car (1).jpg,0.11006128609911038,0.13754246533423248,0.13472563144274133,0.13543051605588388,0.13542524104419243,0.1339147101539028,0.1364670111497654,0.1356161472935852,0.13562137760178775,0.13628222927835337,0.13205236280588661,0.13710168893357383,0.13036780123326794,0.13583514968575833,0.13629555091804874,0.12668617834880094
0.9320001602172852,car (1).jpg,0.1101287436638765,0.13755701631987288,0.13474228349236053,0.13540959482307371,0.1354299125587836,0.13392943995349885,0.1364811598040056,0.13562593735765663,0.13562696553790157,0.13628435269407663,0.13208486224232463,0.13710459466035302,0.13043005084157597,0.1358451632672743,0.13630310580767463,0.1264231877235398
0.9320001602172852,car (1).jpg,0.11003877789244389,0.13754023015978695,0.1347261008293749,0.13542278235230235,0.13543073957332843,0.13391504543006963,0.13646929102769983,0.13561983533142033,0.13561498500287353,0.1362734673945269,0.13204757953257318,0.13709299410498071,0.13036587898324478,0.1358371166392704,0.1362894712435569,0.12684512160362263
0.9320001602172852,car (1).jpg,0.11011262805612422,0.1375501543343251,0.1347339015881898,0.1354219106342686,0.13542282705579126,0.1339210133458392,0.1364716603126121,0.1356169966598745,0.13562694318615712,0.136287169013878,0.13207453573638628,0.13710736627666548,0.13040204410577347,0.13583825657823762,0.1363025246623188,0.12641476111588015
0.9330000877380371,car (1).jpg,0.11009085745702475,0.13755102605235886,0.13473696377718017,0.13540854429108432,0.13543382411406327,0.13392534958426353,0.136479215202238,0.135626496151268,0.13561701901161896,0.13627322152533788,0.13206563974209307,0.13709326232591418,0.1304093307744659,0.13584337512771788,0.1362927122465029,0.12672659030277614
0.937000036239624,car (1).jpg,0.11006235898284424,0.13753922433128646,0.1347229492334067,0.13542812441922716,0.13542188828252413,0.1339115138544457,0.13646368073984155,0.1356110957993383,0.1356167060871966,0.13627822831609587,0.13205160284657513,0.13709797854399425,0.13036735419837883,0.13583172986885667,0.13629143819706896,0.12668398787784432
0.937000036239624,car (1).jpg,0.11013862313492574,0.13755294830238202,0.13473781314346947,0.1354059514887275,0.13542432462266976,0.1339250590115856,0.13647595184754752,0.13562128819480992,0.135623501017511,0.13628124580159734,0.1320842810969688,0.13710193480276284,0.1304288885508643,0.13584279398236204,0.1362999765634509,0.12641860561592647
0.9380002021789551,car (1).jpg,0.11004850090128195,0.13753779381964132,0.13472290452991778,0.13542003308773434,0.13542691742502658,0.1339121620550349,0.13646553593463134,0.13561632610754085,0.13561008997083782,0.13626868412121346,0.13204436088137161,0.13708852375608965,0.1303671753844232,0.13583320508399072,0.1362848220807102,0.1268443839960556
0.9380002021789551,car (1).jpg,0.11011911006201626,0.13754519224705603,0.13472898420440962,0.1354177532097999,0.1354181555412001,0.13391652064520368,0.1364674134811656,0.13561333097378384,0.13562323279657754,0.13628287747894258,0.1320792296027219,0.13710381234929708,0.13041000132679956,0.1358354179066918,0.13629865781052802,0.12641485052285797
0.9380002021789551,car (1).jpg,0.1100950372332379,0.13754749447673492,0.13473338749806732,0.13540507977069374,0.13543022548320596,0.13392188506387295,0.1364754154056806,0.13562186934016576,0.13561386741565076,0.13626904174912474,0.13206838900666107,0.1370900436747126,0.13041201298380053,0.13584064821489433,0.13628933713309016,0.1267179625294164
0.9380002021789551,car (1).jpg,0.11006716460790213,0.1375360503835738,0.13471990939616077,0.13542562102384817,0.13541938488714514,0.1339084516654553,0.136460953827018,0.13561008997083782,0.13561514146508472,0.13627550140327233,0.13206054354435726,0.13709607864571555,0.13037584786127185,0.13583007583976697,0.13628960535402362,0.12669581195066118
0.9380002021789551,car (1).jpg,0.11014090301286018,0.13755183071515925,0.13473647203880215,0.13540601854396087,0.1354238105325473,0.13392327087202918,0.13647519188823604,0.13561878479943093,0.13562063999422072,0.13627735659806212,0.1320942276232514,0.13709902907598365,0.13043805276609097,0.13583944122069375,0.13629680261573823,0.1264220924880615
0.9380002021789551,car (1).jpg,0.1100575757095308,0.13753486574111767,0.13471995409964968,0.13541831200341128,0.13542448108488095,0.1339090104590667,0.1364630548909968,0.13561478383717343,0.13560821242430357,0.13626624778106783,0.1320531227651981,0.1370868026717666,0.13037439499788225,0.1358320651450235,0.13628278807196476,0.1268521847548705
0.9380002021789551,car (1).jpg,0.11013227523950044,0.13754391819762207,0.13472670432647518,0.13541777556154436,0.13541656856734377,0.1339141066568025,0.13646524536195342,0.13561156518597187,0.13561918713083113,0.13627910003412963,0.13207960958237763,0.1371002584219287,0.13041067187913322,0.13583155105490102,0.13629485801397062,0.12642479704914059
0.939000129699707,car (1).jpg,0.11011591376255915,0.13754434288076672,0.13472958770150992,0.13540277754101485,0.13542624687269292,0.1339174594184708,0.13647114622248963,0.13561891890989766,0.13560857005221486,0.13626428082755576,0.13207089240204006,0.13708532745663254,0.13041105185878896,0.13583544025843625,0.1362844644527989,0.12671811899162758
0.939000129699707,car (1).jpg,0.1100811791516756,0.13753001541257087,0.13471320387282418,0.13542059188134573,0.135412947584742,0.13390174614211872,0.13645391302751458,0.13560307152307885,0.13560716189231417,0.13626770064445742,0.13205448622160987,0.1370883002386451,0.13036840473036823,0.13582256565363,0.13628202811265328,0.12669422497680485
0.939000129699707,car (1).jpg,0.11015467168744465,0.13754568398543404,0.13472983357069893,0.1354007435322694,0.13541746263712198,0.13391752647370417,0.13646879928932182,0.13561397917437304,0.13561706371510787,0.1362737579672048,0.13208924318423787,0.13709554220384862,0.13043284480963288,0.13583640138344782,0.13629365101977003,0.12641625868275866
0.939000129699707,car (1).jpg,0.11007112086667072,0.13753122240677146,0.13471610959960337,0.13541466866906507,0.13542119537844602,0.1339056129939095,0.1364592997979283,0.13561183340690533,0.13560242332248965,0.13625978812692024,0.13204970294829643,0.13708061123855247,0.13036990229724674,0.13582567254610928,0.1362770660253842,0.12684780381295727
0.940000057220459,car (1).jpg,0.11015480579791138,0.13753654212195182,0.13471957411999394,0.13541006420970728,0.13540923719516243,0.1339067529328767,0.13645753401011634,0.1356030938748233,0.13561310745633928,0.13627234980730413,0.13207708383525418,0.13709406698871457,0.13040195469879565,0.1358246667176088,0.13628864422901205,0.1264196337961714
0.940000057220459,car (1).jpg,0.11014345111172809,0.13753913492430864,0.13472475972470757,0.13539667551477855,0.1354213518406572,0.1339130561248131,0.13646611707998718,0.13561368860169512,0.1356030938748233,0.1362586034844641,0.13206418687870347,0.13707996303796327,0.13040410046626336,0.13582982997057796,0.1362790106271518,0.12671076526770178
0.940000057220459,car (1).jpg,0.11010784478281078,0.13752357811016774,0.13470710184658788,0.1354141098754537,0.13540758316607274,0.13389671699961628,0.1364483027396563,0.13559808708406532,0.1356032950405234,0.13626416906883349,0.13205155814308622,0.13708479101476562,0.13036630366638943,0.13581923524370615,0.1362781165573736,0.12669836004952909
0.940000057220459,car (1).jpg,0.11018162789125775,0.13754195124411,0.13472612318111934,0.13539727901187884,0.1354141098754537,0.13391441958122488,0.1364655135828869,0.1356108499301493,0.1356110510958494,0.13626852765900227,0.13208671743711442,0.13709017778517935,0.13042926853052003,0.1358303664124449,0.13628772780748938,0.12641511874379144
0.940000057220459,car (1).jpg,0.11009353966635939,0.1375246956973905,0.13470938172452232,0.13540791844223957,0.13541442279987606,0.13389939920895091,0.13645257192284727,0.13560378677890142,0.13559587426136424,0.13625442370825097,0.13204784775350664,0.13707526917162766,0.13036266033204322,0.13581959287161743,0.1362708075369367,0.1268515812577702
0.940000057220459,car (1).jpg,0.11016247244625955,0.13753193766259403,0.13471496966063615,0.13540689026199462,0.13540440921836008,0.13390248374968575,0.13645272838505845,0.13559873528465452,0.13560883827314832,0.13626928761831375,0.1320805707073892,0.13709118361367983,0.1304019770505401,0.13582129160419604,0.13628517970862147,0.12643130140677708
0.94100022315979,car (1).jpg,0.11015516342582267,0.13753654212195182,0.13472095992815017,0.13539423917463292,0.13541726147142188,0.1339092563282557,0.13646258550436324,0.135610246433049,0.13559931643001036,0.13625542953675146,0.1320680760822387,0.1370769455524618,0.13040734146920938,0.1358262089879762,0.1362758143276947,0.1267171131631271
0.94100022315979,car (1).jpg,0.1101108399165678,0.1375212535287444,0.13470437493376433,0.1354122993841528,0.13540461038406018,0.13389354305190362,0.13644477116403236,0.1355948013776304,0.13559936113349927,0.1362602575135538,0.13206083411703518,0.13708112532867495,0.13037363503857077,0.13581467548783727,0.13627449557477184,0.12671612968637105
0.94100022315979,car (1).jpg,0.11017673285922204,0.13753824085453042,0.13472270336421768,0.13539470856126648,0.13541111474169668,0.133910105694545,0.13646173613807394,0.13560566432543567,0.13560997821211554,0.13626685127816812,0.13209704394305277,0.13708906019795658,0.13044216548707074,0.135828555921144,0.13628703490341126,0.12641862796767092
0.94100022315979,car (1).jpg,0.11009365142508167,0.13752377927586784,0.13470915820707777,0.1354082984218953,0.13541442279987606,0.13389812515951696,0.13645212488795816,0.13560316093005667,0.13559551663345296,0.13625328376928375,0.13205766016932252,0.13707457626754954,0.13037551258510502,0.13581872115358368,0.13627069577821443,0.12685247532754843
0.94100022315979,car (1).jpg,0.1101601478648362,0.1375297471916374,0.13471336033503536,0.13540637617187215,0.13540362690730415,0.13390067325838487,0.13645123081817995,0.13559681303463136,0.1356075418719699,0.13626747712701287,0.13208410228301315,0.13708966369505687,0.13040879433259897,0.13581959287161743,0.13628372684523188,0.12643711286033546
0.94100022315979,car (1).jpg,0.11013985248087078,0.13753379285738382,0.1347196411752273,0.13539347921532144,0.13541614388419912,0.13390842931371086,0.1364616020276072,0.13560888297663723,0.13559837765674324,0.13625417783906196,0.13207386518405262,0.13707620794489478,0.1304132870332345,0.1358256054908759,0.1362748084991942,0.12671733668057164
0.942000150680542,car (1).jpg,0.11010710717524376,0.13751968890663252,0.13470345851224166,0.13541220997717499,0.13540378336951533,0.13389282779608105,0.13644443588786553,0.13559451080495247,0.13559721536603156,0.13625793293213045,0.1320574143001335,0.13707947129958525,0.1303740150182265,0.13581333438316995,0.13627243921428195,0.12671398391890334
0.942000150680542,car (1).jpg,0.11018600883317099,0.13753408343006174,0.13471850123626009,0.135390953468198,0.13540644322710552,0.13390628354624315,0.13645769047232753,0.13560280330214539,0.13560291506086766,0.13625992223738698,0.13209098662030538,0.137082600543809,0.13043575053641207,0.13582153747338505,0.1362797705864633,0.1264111401332784
0.942000150680542,car (1).jpg,0.11009801001525045,0.13751651495891987,0.1347014468552407,0.13540067647703605,0.13540715848292809,0.13389079378733562,0.13644488292275464,0.1355953378194973,0.1355893922554722,0.13624689117036953,0.1320550226634768,0.13706863070352443,0.13037374679729305,0.13581237325815837,0.1362646608072115,0.12685305647290426
0.942000150680542,car (1).jpg,0.11016745688527309,0.13752563447065763,0.13470877822742203,0.13540226345089237,0.1353996035933022,0.13389609115077153,0.13644698398673344,0.13559200740957347,0.13560331739226786,0.13626289501939953,0.13208430344871325,0.13708546156709928,0.13040600036454206,0.13581532368842647,0.136279658827741,0.1264417396714377
0.943000078201294,car (1).jpg,0.11015619160606761,0.13752936721198167,0.1347145896809804,0.13538773481699642,0.13541142766611905,0.13390319900550832,0.13645661758859368,0.13560380913064587,0.13559437669448574,0.13624997571110437,0.13207831318119923,0.13707247520357074,0.13041925494900405,0.1358221633222298,0.13627127692357027,0.1267189013026835
0.943000078201294,car (1).jpg,0.11012503327429692,0.13751575499960839,0.1346989434598617,0.13540711377943918,0.13539996122121348,0.1338879551157898,0.13644018905641903,0.1355899957525725,0.13559337086598525,0.1362539096181285,0.13206034237865716,0.13707567150302785,0.1303699246489912,0.1358095122348681,0.136268907638658,0.12672708204115415
0.943000078201294,car (1).jpg,0.1102048066502579,0.1375318035521273,0.134715796675181,0.13538793598269652,0.13540393983172652,0.1339028637293415,0.13645449417287042,0.13559815413929868,0.1356005457759554,0.13625737413851907,0.13209585930059664,0.13708020890715228,0.13043807511783542,0.13581854233962803,0.1362777142259734,0.12641666101415885
0.943000078201294,car (1).jpg,0.11011501969278094,0.13751423508098543,0.13469871994241714,0.13539808367467923,0.13540447627359345,0.13388842450242336,0.13644222306516446,0.1355925885549293,0.13558778292987142,0.1362448571616241,0.13205330157915374,0.13706673080524573,0.13037508790196037,0.13581159094710243,0.136263163240333,0.12685792915319552
0.943000078201294,car (1).jpg,0.11017957153076786,0.137522706392134,0.1347050901895869,0.13540016238691358,0.13539656375605627,0.13389329718271462,0.13644378768727633,0.13558997340082804,0.13560012109281075,0.13625878229841976,0.13208361054463513,0.13708143825309732,0.13040814613200977,0.13581188151978035,0.1362762613625838,0.12645190971516487
0.9440000057220459,car (1).jpg,0.11016598167013904,0.13752447217994596,0.1347095381867335,0.13538355504078328,0.135406957317228,0.13389834867696151,0.1364523037019138,0.13559833295325432,0.1355897498833835,0.13624434307150163,0.13207679326257626,0.1370667978604791,0.1304183385274814,0.13581659773786042,0.1362663148363012,0.12671778371546075
0.9440000057220459,car (1).jpg,0.11012936951272125,0.13750992119430555,0.13469297554409213,0.1354023975613591,0.13539428387812183,0.13388216601397587,0.13643466817553856,0.1355838937263362,0.13558865464790518,0.13624834403375913,0.13206128115192428,0.13707028473261412,0.13037493143974918,0.13580401370573209,0.1362640573101112,0.12673182061097868
0.9440000057220459,car (1).jpg,0.11020824881890402,0.13752581328461327,0.13470958289022242,0.135383197412872,0.13539806132293478,0.13389649348217172,0.13644852625710086,0.13559182859561783,0.13559663422067572,0.1362527026239279,0.13210062022216562,0.1370760961861725,0.13044355129522697,0.13581389317678133,0.1362739591329049,0.12641909735430448
1.0570001602172852,car (2).jpg,0.11012156875390634,0.13751077056059485,0.13469552364296003,0.13539549087232242,0.1354013470293697,0.13388507174075506,0.13643936204187418,0.13559026397350596,0.13558481014785886,0.136242152600545,0.1320613705589021,0.137064339168589,0.13038360391659784,0.13580917695870126,0.13626059278972064,0.1268647911387433
1.058000087738037,car (2).jpg,0.11018612059189327,0.1375183925054541,0.13470151391047405,0.1353971449014121,0.13539242868333204,0.13388976560709068,0.1364403008151413,0.13558805115080488,0.13559612013055325,0.13625578716466274,0.1320885726319042,0.13707853252631813,0.13041031425122193,0.13580879697904552,0.1362728191939377,0.12645673769196722
1.058000087738037,car (2).jpg,0.11017125668183049,0.13752163350840013,0.1347067889221655,0.13538120810761547,0.13540326927939286,0.13389542059843787,0.13644877212628986,0.13559667892416463,0.13558760411591578,0.13624253258020075,0.1320820235707788,0.1370655014593007,0.13041536574546883,0.1358139602320147,0.13626459375197814,0.1267134027735475
1.058000087738037,car (2).jpg,0.11012713433827571,0.1375067919500818,0.13469024863126858,0.13540056471831377,0.13539122168913145,0.13387872384532976,0.13643138246910363,0.13557991511582315,0.13558465368564768,0.13624449953371282,0.13206818784096097,0.1370669990261792,0.1303712210501696,0.13579996803998567,0.13626074925193182,0.12673470398601341
1.058000087738037,car (2).jpg,0.11019888343797725,0.13752094060432202,0.13470551487273155,0.13538078342447082,0.13539392625021054,0.13389314072050343,0.13644468175705454,0.13558923579326101,0.13559305794156287,0.13624981924889318,0.1321075269112023,0.13707332456986004,0.13044732874003992,0.1358117027058247,0.136271165164848,0.1264187844298821
1.058000087738037,car (2).jpg,0.11011218102123511,0.13750598728728142,0.13469109799755788,0.13539236162809867,0.13539756958455676,0.1338816072203645,0.1364358975214836,0.13558715708102667,0.13558016098501216,0.13623752578944276,0.1320662208874489,0.13705975706097567,0.13038606260848792,0.13580463955457683,0.1362564577169964,0.12686231009510876
1.058000087738037,car (2).jpg,0.11017892333017866,0.1375118434443287,0.13469467427667073,0.13539175813099838,0.13538637136058465,0.1338831494907319,0.1364337517540159,0.135580987999557,0.13559106863630635,0.13625064626343802,0.1320935794226622,0.13707345868032678,0.13041114126576678,0.13580307493246496,0.13626792416190198,0.12646480667171558
1.064000129699707,car (2).jpg,0.11016931208006288,0.13751658201415323,0.13470158096570742,0.13537651424127986,0.1353979942677014,0.13389012323500196,0.13644356416983178,0.1355902416217615,0.13558326787749145,0.13623826339700978,0.13208846087318193,0.13706120992436527,0.13042166893740523,0.13580933342091245,0.13626036927227608,0.12671199461364682
1.064000129699707,car (2).jpg,0.11013305755055637,0.1375027909878243,0.1346858900410998,0.13539741312234557,0.13538713131989613,0.13387523697319473,0.1364280520591798,0.13557810462452227,0.1355824855664355,0.13624248787671184,0.13207536275093112,0.13706485325871148,0.13038058643109637,0.1357986045835739,0.1362583576152751,0.12675198188447737
1.064000129699707,car (2).jpg,0.1102098581445048,0.13751863837464312,0.13470245268374118,0.1353791964506145,0.13539072995075344,0.13389027969721315,0.13644173132678644,0.13558713472928222,0.13559026397350596,0.13624682411513617,0.1321165346642178,0.13707046354656977,0.13044560765571686,0.13580799231624513,0.13626794651364643,0.12642770277591978
1.06600022315979,car (2).jpg,0.11012302161729594,0.13750332742969124,0.13468814756728978,0.1353895006048084,0.13539361332578817,0.13387736038891798,0.13643158363480373,0.13558172560712403,0.1355775458309109,0.13623415067603,0.13207851434689932,0.13705700779640767,0.1303821287014638,0.13580041507487478,0.13625312730707256,0.1268688368044897
1.06600022315979,car (2).jpg,0.11018287958894725,0.13750837892393813,0.1346913885702358,0.1353901935088865,0.13538243745356052,0.1338785450313741,0.13642984019873622,0.13557515419425417,0.13558686650834875,0.1362459523971024,0.13211112554205962,0.13706952477330264,0.13041824912050357,0.13579842576961826,0.13626352086824428,0.12647897767770025
1.06600022315979,car (2).jpg,0.11017443062954314,0.1375103905809391,0.13469597067784914,0.13537253563076682,0.13539211575890966,0.13388446824365477,0.1364381550476736,0.1355856371624037,0.13557837284545574,0.1362332566062518,0.13210862214668062,0.13705678427896312,0.1304369798823571,0.13580557832784396,0.13625583186815166,0.1267289595876884
1.06600022315979,car (2).jpg,0.11013118000402213,0.13749818652846652,0.13468164320965328,0.1353948426717332,0.1353830409506608,0.13387123601093723,0.1364238946347111,0.1355744389384316,0.1355788869355782,0.1362383081004987,0.1320866727336255,0.13706125462785418,0.1303884765968891,0.13579482713876095,0.13625482603965117,0.12676583996603966
1.06600022315979,car (2).jpg,0.11021388145850676,0.13751338571469612,0.13469699885809408,0.135374949619168,0.13538536553208416,0.13388478116807714,0.13643661277730618,0.13558103270304592,0.1355853912932147,0.13624141499297798,0.13212026740554184,0.1370655461627896,0.1304537436906986,0.13580253849059803,0.13626331970254418,0.12642660754044147
1.067000150680542,car (2).jpg,0.11012809546328729,0.13749666660984355,0.13468101736080854,0.13538330917159427,0.13538726543036286,0.1338708560312815,0.13642543690507852,0.13557620472624357,0.1355696333133737,0.13622621580674837,0.13208206827426772,0.1370491399823594,0.1303971267219933,0.13579301664746007,0.1362458629901246,0.1268728377667472
1.5320000648498535,car (2).jpg,0.11019389899896372,0.1375008463860567,0.1346833866457208,0.13538346563380546,0.13537553076452383,0.13387139247314842,0.1364228441027217,0.13556847102266203,0.13558156914491284,0.13624023035052185,0.1321100303065813,0.13706398154067773,0.13042499934732907,0.13579288253699334,0.13625844702225293,0.12647904473293362
1.5320000648498535,car (2).jpg,0.11019182028672937,0.13750712722624864,0.13469221558478064,0.13536920522084298,0.13538833831409672,0.1338807578540752,0.1364345564168163,0.13558145738619057,0.13557618237449912,0.13622999325156132,0.13210652108270182,0.13705410206962848,0.13043449883872257,0.13580242673187576,0.1362536637489395,0.12671604027939323
1.5320000648498535,car (2).jpg,0.11015120716705408,0.1374947443598204,0.1346781339857738,0.1353911546338981,0.1353791517471256,0.13386681036553508,0.13641917841663104,0.13556862748487322,0.1355737460343535,0.13623307779229615,0.13208584571908066,0.13705665016849639,0.1303790665124734,0.13578984269974742,0.13624968513842645,0.12676358243984967
1.5320000648498535,car (2).jpg,0.11024278226408747,0.1375107035053615,0.13469416018654826,0.13537253563076682,0.13538087283144865,0.13388044492965281,0.13643176244875937,0.1355767858715994,0.13558277613911343,0.13623902335632126,0.13212089325438658,0.13706373567148872,0.1304446912341942,0.1358003033161525,0.13626092806588747,0.1264210419560721
1.5320000648498535,car (2).jpg,0.11015257062346585,0.13749505728424277,0.13467909511078538,0.13538241510181606,0.1353835997442722,0.1338675479731021,0.13642188297771013,0.13557166732211914,0.1355672863802059,0.13622386887358057,0.1320878797278261,0.1370476871189698,0.13039690320454875,0.1357916978945372,0.1362438066296347,0.12687480472025928
1.5320000648498535,car (2).jpg,0.11021001460671599,0.13750037699942314,0.13468307372129842,0.13538527612510634,0.13537416730811205,0.13387056545860357,0.13642206179166577,0.1355685827813843,0.135580496261179,0.13623933628074364,0.13212062503345312,0.1370638921336999,0.1304331800857997,0.13579299429571562,0.13625797763561937,0.12649909424771003
1.5320000648498535,car (2).jpg,0.11019783290598785,0.1375046014791252,0.13469004746556848,0.13536942873828753,0.13538543258731753,0.13387803094125164,0.13643171774527046,0.1355781940315001,0.13557122028723004,0.13622507586778115,0.13212084855089767,0.13704983288643752,0.13045021211507465,0.1357979563829847,0.13624912634481506,0.12673148533481185
1.5330002307891846,car (2).jpg,0.11015721978631256,0.137488195298695,0.1346719872560486,0.13538802538967434,0.13537311677612265,0.13386041776662086,0.1364133893148171,0.13556227958944791,0.13556880629882886,0.13622704282129322,0.1320976250884086,0.13705112928761592,0.13040139590518426,0.13578481355724498,0.13624458894069064,0.12679009160877366
1.5330002307891846,car (2).jpg,0.11024117293848669,0.13750388622330262,0.13468781229112295,0.13536898170339842,0.13537562017150165,0.13387463347609443,0.13642726974812386,0.1355706838453631,0.1355776352378887,0.1362326978126404,0.1321272858533008,0.13705776775571915,0.13046440547280377,0.1357946483248053,0.13625558599896265,0.1264802964306231
1.5330002307891846,car (2).jpg,0.1101500448763424,0.13749063163884062,0.13467500474155006,0.13538035874132617,0.1353810516454043,0.13386450813585618,0.1364194019340756,0.1355694321476736,0.13556382185981533,0.13621888443456703,0.13208604688478076,0.13704310501135647,0.13040579919884196,0.1357874957665796,0.13623942568772146,0.1269134955899114
1.5330002307891846,car (2).jpg,0.11021198156022806,0.13749548196738742,0.13467815633751826,0.13538257156402725,0.13537027810457683,0.13386526809516766,0.13641756909103026,0.1355635312871374,0.13557725525823297,0.13623551413244178,0.1321121313705601,0.13706020409586478,0.13043306832707743,0.13578946272009168,0.13625446841173988,0.12656478602466417
1.5330002307891846,car (2).jpg,0.11021318855442865,0.13750223219421293,0.13468761112542285,0.13536826644757585,0.13538308565414972,0.13387543813889483,0.13642937081210266,0.1355769870372995,0.13556802398777293,0.1362220583822797,0.13211894865261897,0.13704681540093605,0.1304528943244093,0.13579507300794996,0.13624552771395776,0.1267904715884294
1.5330002307891846,car (2).jpg,0.11017221780684207,0.13748566955157154,0.1346692826949695,0.13538668428500703,0.1353699875318989,0.13385771320554177,0.13641026007059337,0.1355607820225694,0.1355647829848269,0.13622391357706948,0.13209386999534012,0.1370478882846699,0.1303958303208149,0.1357815502025545,0.1362408114958777,0.12684659681875668
1.5330002307891846,car (2).jpg,0.11026242944746369,0.13750156164187927,0.13468519713702168,0.13536746178477546,0.13537213329936662,0.13387161599059297,0.13642338054458863,0.13556715226973917,0.135575243601232,0.13623088732133953,0.13213012452484663,0.13705611372662946,0.13046042686229073,0.13579232374338196,0.13625328376928375,0.12656384725139705
1.5330002307891846,car (2).jpg,0.11017722459760006,0.13748850822311737,0.13467299308454908,0.1353783470843252,0.13537743066280253,0.133861848278266,0.13641578095147383,0.13556616879298314,0.13556105024350287,0.13621718570198843,0.13208866203888203,0.13704131687180005,0.13040311698950732,0.13578593114446774,0.13623613998128653,0.12697677337846439
1.5340001583099365,car (2).jpg,0.11023757430762939,0.13749525844994287,0.1346776869508847,0.1353823927500716,0.1353677970609423,0.1338647540050452,0.13641562448926264,0.13556254781038138,0.13557515419425417,0.13623403891730773,0.13210940445773656,0.13705888534294192,0.1304292908822645,0.13578814396716882,0.13625192031287198,0.12666210552002258
1.5340001583099365,car (2).jpg,0.11022740426390222,0.13750080168256779,0.1346856888753997,0.13536636654929715,0.1353794423198035,0.13387362764759395,0.13642715798940158,0.13557461775238724,0.13556695110403907,0.136220896091568,0.13210994089960348,0.13704601073813566,0.13045041328077475,0.1357942012899162,0.13624398544359034,0.1268607454729969
1.5340001583099365,car (2).jpg,0.11018189611219122,0.1374864965661164,0.1346698861920698,0.13538710896815168,0.13536931697956525,0.13385818259217533,0.13641061769850465,0.13556067026384713,0.13556523001971602,0.13622369005962492,0.13208944434993797,0.13704820120909228,0.1303956291551148,0.1357817960717435,0.13624067738541096,0.12694637500600517
1.5340001583099365,car (2).jpg,0.11026591631959871,0.13750171810409045,0.13468580063412197,0.1353680876336202,0.13537152980226633,0.1338715936388485,0.13642333584109972,0.13556733108369481,0.13557537771169872,0.13623032852772815,0.13213303025162582,0.1370561360783739,0.13046668535073822,0.13579216728117077,0.13625314965881702,0.12666440774970147
1.5340001583099365,car (2).jpg,0.11018033149007934,0.1374896481620846,0.13467402126479402,0.13537935291282568,0.1353779000494361,0.13386236236838847,0.1364173008700968,0.1355683369121953,0.13556254781038138,0.1362174986264108,0.13208390111731305,0.13704205447936707,0.13040036772493932,0.1357864005311013,0.13623799517607632,0.12705185288808976
1.5350000858306885,car (2).jpg,0.1102376190111183,0.13749512433947614,0.1346778881165848,0.13538245980530497,0.1353682887993203,0.13386432932190054,0.13641638444857412,0.13556265956910366,0.13557595885705456,0.1362337483446298,0.13212880577192376,0.13705917591561984,0.13044419949581618,0.13578713813866833,0.13625332847277266,0.12679521015825393
1.5350000858306885,car (2).jpg,0.11023502620876148,0.13750086873780115,0.13468665000041127,0.13536621008708596,0.13538026933434835,0.13387353824061612,0.13642802970743534,0.13557401425528695,0.13556636995868324,0.13621953263515624,0.13212196613812044,0.13704498255789072,0.13046040451054627,0.13579252490908206,0.13624411955405707,0.12695898138987796
1.5350000858306885,car (2).jpg,0.11019358607454134,0.1374837920050373,0.13466720398273516,0.13538458322102823,0.13536777470919784,0.1338559474177298,0.13640990244268208,0.13555950797313546,0.13556444770866008,0.13622257247240216,0.13210091079484354,0.1370470389183806,0.13040530746046394,0.13578139374034331,0.13623882219062117,0.1270714330162326
1.5350000858306885,car (2).jpg,0.11028028849128348,0.13750261217386867,0.13468649353820009,0.13536924992433189,0.13537282620344473,0.1338738064615496,0.1364272473963794,0.1355705944383853,0.13557721055474406,0.13623256370217368,0.13214192624591903,0.13705810303188598,0.13046702062690504,0.13579411188293838,0.13625484839139562,0.12680801770782682
1.5350000858306885,car (2).jpg,0.1101938095919859,0.13748942464464003,0.1346741330235163,0.13537910704363668,0.1353783470843252,0.1338637034730558,0.13642112301839865,0.13556742049067264,0.13556306190050385,0.136218146827,0.1320964851494414,0.13704207683111153,0.13039545034115915,0.1357863558276124,0.13623833045224315,0.12717688854657275
1.5350000858306885,car (2).jpg,0.11024743142693418,0.13749476671156485,0.13467679288110648,0.1353821468808826,0.13536806528187575,0.13386517868818984,0.13641971485849796,0.13556205607200336,0.13557533300820981,0.13623314484752952,0.13210560466117915,0.13705647135454074,0.1303973278876934,0.1357846570950338,0.1362505568564602,0.12691707186902426
1.5360000133514404,car (2).jpg,0.11024448099666607,0.13750082403431224,0.134684280715499,0.13536395256089598,0.13537917409887004,0.13387356059236058,0.1364310024894479,0.13557122028723004,0.13556945449941807,0.1362227065828689,0.13209892148958702,0.13704525077882418,0.13040984486458837,0.1357927037230377,0.1362459076936135,0.12707420463254507
1.5360000133514404,car (2).jpg,0.11018717112388267,0.1374863848073941,0.1346679862937911,0.1353853431803397,0.135370188697599,0.13385907666195354,0.13641551273054037,0.13556089378129169,0.13556757695288382,0.13622554525441471,0.1320668690880381,0.13704650247651368,0.13034804229116945,0.13578103611243203,0.1362419514348449,0.12719273593339156
1.5360000133514404,car (2).jpg,0.11025185707233633,0.13750498145878093,0.13468635942773335,0.13536971931096545,0.13537468139823453,0.13387592987727284,0.13643127071038136,0.13557025916221846,0.1355815914966573,0.13623638585047554,0.13209950263494286,0.13705810303188598,0.1304084814081766,0.13579406717944947,0.13625799998736382,0.12691872589811395
1.5360000133514404,car (2).jpg,0.11013705851281387,0.13749277740630833,0.13467487063108333,0.1353796434855036,0.1353812975145933,0.13386613981320142,0.13642498987018942,0.1355695439063959,0.13556876159533995,0.1362231089142691,0.13205873305305638,0.13704375321194567,0.13035257969529387,0.13578852394682456,0.13624367251916797,0.12731517878951773
1.5360000133514404,car (2).jpg,0.11018616529538218,0.1375002428889564,0.13467989977358577,0.13538617019488455,0.13537336264531166,0.1338689561330028,0.13642503457367833,0.1355646935778491,0.13558407254029184,0.1362415043999558,0.13207531804744221,0.1370623945668214,0.13036849413734605,0.13579116145267028,0.13625994458913143,0.12705415511776866
1.5370001792907715,car (2).jpg,0.1101824549058026,0.13751016706349456,0.13469221558478064,0.13537302736914483,0.13538822655537444,0.1338818977930424,0.1364398537802522,0.13558047390943453,0.13557772464486653,0.1362309990800618,0.1320738204805637,0.13705177748820513,0.13038089935551875,0.13579911867369637,0.13625422254255087,0.12721175726792303
1.5370001792907715,car (2).jpg,0.11012923540225451,0.13749385029004219,0.1346741330235163,0.13539256279379877,0.13537676011046887,0.13386508928121202,0.13642096655618746,0.13556536413018275,0.13557533300820981,0.1362333013097407,0.1320442714743938,0.137053096241128,0.13032139901177872,0.13578642288284576,0.1362503556907601,0.12733178613564802
1.5370001792907715,car (2).jpg,0.11021162393231677,0.13751222342398445,0.13469275202664757,0.13537691657268006,0.13538127516284884,0.13388216601397587,0.136436702184284,0.13557497538029853,0.13558865464790518,0.13624398544359034,0.13207914019574407,0.13706476385173366,0.13039408688474738,0.13579972217079667,0.1362649066764005,0.12705504918754687
1.5370001792907715,car (2).jpg,0.11010163099785221,0.13750111460699016,0.1346829396108317,0.13538798068618543,0.1353891429768971,0.1338745440691166,0.13643227653888185,0.1355764952989215,0.1355745954006428,0.13623012736202805,0.1320354201835895,0.13704987758992643,0.13033950392478752,0.13579364249630482,0.13625046744948238,0.12746629893378006
1.5370001792907715,car (2).jpg,0.11012686611734225,0.13750491440354756,0.13468459363992138,0.13539122168913145,0.13537776593896936,0.13387458877260552,0.13642896848070246,0.13556981212732935,0.13558738059847122,0.13624608650756914,0.13205263102682008,0.13706621671512326,0.13036283914599886,0.1357947600835276,0.13626293972288844,0.12719447936945907
1.5370001792907715,car (2).jpg,0.11011752308815993,0.1375132516042294,0.13469588127087131,0.13537550841277937,0.13539097581994244,0.13388592110704436,0.13644220071342,0.13558335728446927,0.13558306671179135,0.13623678818187573,0.13205424035242086,0.13705747718304123,0.13038769428583316,0.1358046619063213,0.13625913992633104,0.12736558197326445
1.5370001792907715,car (2).jpg,0.11006171078225503,0.1375015392901348,0.1346829843143206,0.13539982711074675,0.13538503025591733,0.13387351588887167,0.13642912494291365,0.13557385779307576,0.1355819938280575,0.13624049857145532,0.13202918404688646,0.13706047231679824,0.13033103261363896,0.13579406717944947,0.1362573070832857,0.12747599959087366
1.5380001068115234,car (2).jpg,0.11014548512047352,0.1375185042641764,0.13470032926801792,0.1353830409506608,0.13538746659606296,0.1338887597785902,0.13644258069307574,0.13558266438039115,0.13559451080495247,0.13624997571110437,0.1320643656926591,0.13707106704367006,0.130396523224893,0.13580533245865495,0.13626915350784702,0.12716048236614255
1.5380001068115234,car (2).jpg,0.11005978853223188,0.13750768601986002,0.13469062861092432,0.13539343451183253,0.13539551322406687,0.13388093666803083,0.1364375962540622,0.1355840948920363,0.1355805856681568,0.1362356035394196,0.13202737355558558,0.13705606902314055,0.13034404132891195,0.13579931983939647,0.1362560553855962,0.12762745501130282
1.5380001068115234,car (2).jpg,0.11011197985553502,0.1375107929123393,0.1346915897359359,0.1353964967008229,0.13538368915125001,0.13388031081918608,0.13643384116099372,0.13557578004309892,0.13559388495610772,0.13625154033321624,0.1320432656458933,0.13707202816868164,0.13036154274482045,0.1357992080806742,0.13626841590028,0.12729977843758802
1.5380001068115234,car (2).jpg,0.11011173398634601,0.13752158880491122,0.13470500078260908,0.13538270567449398,0.13539946948283546,0.133893855976326,0.136449710899557,0.1355898392903613,0.13559160507817328,0.13624479010639073,0.13204559022731666,0.13706536734883396,0.13038688962303277,0.1358114568366357,0.13626754418224624,0.12749414920737137
1.5380001068115234,car (2).jpg,0.11005004317164936,0.1375096529733721,0.13469174619814708,0.13540664439280561,0.13539403800893282,0.13388142840640885,0.13643712686742865,0.13558132327572384,0.13558941460721666,0.13624742761223646,0.13202225500610532,0.13706735665409048,0.13033742521255318,0.13580088446150834,0.13626468315895596,0.1276145133512632
1.5390000343322754,car (2).jpg,0.11012717904176463,0.13752532154623526,0.13470761593671035,0.1353891429768971,0.13539571438976697,0.1338959123368159,0.13645006852746827,0.13558995104908358,0.1356015963079448,0.13625759765596362,0.1320586212943341,0.1370782419536402,0.13040228997496248,0.13581353554887005,0.13627802715039578,0.12727545973962065
1.5390000343322754,car (2).jpg,0.11004087895642269,0.13751609027577522,0.1346995916604509,0.13540072118052496,0.1354046550875491,0.13389021264197978,0.13644649224835542,0.13559357203168534,0.13559026397350596,0.13624642178373597,0.1320203104043377,0.1370662390668677,0.13034314725913373,0.13581074158081313,0.13626685127816812,0.1277492943703287
1.5390000343322754,car (2).jpg,0.1100960877652273,0.1375214546944445,0.1347029444221192,0.13540637617187215,0.13539473091301094,0.13389177726409165,0.13644483821926573,0.1355876935228936,0.13560190923236717,0.13626128569379875,0.13204044932609194,0.1370813488461195,0.13035678182325147,0.13580928871742354,0.13627769187422895,0.12739893077599176
1.5390000343322754,car (2).jpg,0.11010417909672011,0.1375305518544378,0.1347142991083025,0.13539005939841978,0.13540778433177283,0.13390328841248614,0.13645831632117228,0.13560052342421094,0.13559996463059956,0.1362545131152288,0.13204270685228192,0.13707477743324964,0.1303807205415631,0.1358218056943185,0.13627737894980657,0.12758212567354746
1.5390000343322754,car (2).jpg,0.11005198777341697,0.13751787841533164,0.13469970341917317,0.13541312639869765,0.13540112351192515,0.13388978795883513,0.13644392179774306,0.13558936990372775,0.13559582955787533,0.13625513896407354,0.13201353782576775,0.13707441980533835,0.130321510770501,0.13580841699938978,0.13627154514450374,0.12768845292192135
1.5390000343322754,car (2).jpg,0.11013482333836834,0.13753488809286213,0.13471758481473742,0.13539763663979013,0.135404453921849,0.1339060600287986,0.13645847278338347,0.13559875763639898,0.13561201222086097,0.13626863941772455,0.1320514240326195,0.13708906019795658,0.13038946007364513,0.1358244655519087,0.13628817484237848,0.12733907280434045
1.5400002002716064,car (2).jpg,0.11004584104369176,0.13752581328461327,0.1347099852216226,0.1354084995875954,0.13541448985510943,0.1339005614996626,0.13645594703626002,0.1356021998050451,0.13559907056082135,0.1362545578187177,0.13201700234615832,0.13707446450882727,0.1303421637823777,0.13581896702277269,0.13627494260966094,0.12781152162689227
1.5400002002716064,car (2).jpg,0.11009631128267185,0.13752947897070394,0.1347116392507123,0.13541402046847587,0.13540391747998207,0.13390022622349576,0.1364533542339032,0.13559531546775286,0.13561232514528335,0.13627024874332533,0.13204284096274865,0.13709058011657954,0.13036692951523418,0.13581948111289516,0.136287414883067,0.1274542289917742
1.5400002002716064,car (2).jpg,0.11010592253278763,0.13753926903477537,0.13472366448922926,0.13539913420666863,0.13541788732026663,0.1339121620550349,0.13646736877767668,0.13561073817142702,0.13560928530803742,0.13626262679846607,0.13204590315173903,0.13708318168916483,0.13039234344867986,0.13583088050256736,0.13628589496444404,0.12762620331361332
1.5400002002716064,car (2).jpg,0.1100577768752309,0.1375290989910482,0.13471150514024557,0.13542461519534768,0.13541388635800913,0.13390038268570695,0.13645516472520408,0.1356015516044559,0.1356095535289709,0.1362678124031797,0.13201803052640326,0.13708754027933362,0.13033150200027252,0.1358220068600186,0.136284665618499,0.1277305412567307
1.5400002002716064,car (2).jpg,0.11014304878032789,0.13754796386336848,0.13473086175094387,0.13541082416901876,0.13541833435515574,0.13391772763940427,0.13647103446376735,0.13561122990980504,0.13562338925878872,0.13627925649634082,0.1320565202303553,0.13710003490448414,0.13040280406508495,0.13583512733401387,0.13629975304600633,0.12736144690054021
1.5400002002716064,car (2).jpg,0.11005648047405249,0.13753698915684093,0.1347210940386169,0.13541947429412296,0.13542678331455985,0.1339107091916453,0.13646714526023213,0.13561438150577323,0.13560861475570377,0.1362640126066223,0.13202019864561543,0.1370840534071986,0.13035588775347326,0.13582974056360014,0.13628533617083266,0.12783322517075837
1.5410001277923584,car (2).jpg,0.11012141229169516,0.13753951490396438,0.13472160812873937,0.13542392229126957,0.1354154062766321,0.13390956925267808,0.13646271961482997,0.13560691602312516,0.13562195874714358,0.13628037408356358,0.13204190218948153,0.1371004595876288,0.13037023757341357,0.1358297629153446,0.13629754022330526,0.12747485965190644
1.5410001277923584,car (2).jpg,0.11016562404222775,0.13755004257560283,0.13473461684401236,0.13540867840155105,0.1354295549308723,0.13392277913365117,0.13647729295221483,0.13561985768316479,0.135618248357564,0.13627230510381522,0.13204418206741597,0.13709272588404725,0.13038849894863355,0.13583993295907176,0.13629572973200438,0.12764024020913126
1.5410001277923584,car (2).jpg,0.11011725486722647,0.13753759265394122,0.1347202893758165,0.1354322594919514,0.135422961166258,0.1339092116247668,0.13646294313227453,0.13560966528769317,0.13561621434881857,0.13627563551373906,0.1320186116717591,0.13709498341023724,0.1303309655584056,0.13582989702581133,0.13629213110114707,0.12775591048668747
1.5410001277923584,car (2).jpg,0.110204761946769,0.13755433411053825,0.13473691907369126,0.13541632269815476,0.1354246598988366,0.13392418729355185,0.13647628712371435,0.13561710841859678,0.13562861956699127,0.13628542557781048,0.13204688662849506,0.13710589106153143,0.130388029562,0.1358405588079165,0.13630502805769779,0.12737584142396943
1.5410001277923584,car (2).jpg,0.11012060762889476,0.1375470027383569,0.13473012414337684,0.1354278561982937,0.13543514286698613,0.13391991811036089,0.13647476720509139,0.13562227167156596,0.135617756619186,0.13627389207767154,0.1320043065553077,0.13709346349161428,0.1303356147212523,0.13583883772359345,0.1362939192407035,0.12784594331335344
1.8240001201629639,car (2).jpg,0.11016953559750743,0.1375501543343251,0.13473045941954367,0.1354335111896409,0.1354232517389359,0.1339188675783715,0.13647096740853398,0.13561482854066234,0.13563011713386977,0.13628904656041224,0.13202022099735988,0.1371091991197108,0.13034714822139123,0.1358382118747487,0.13630525157514234,0.12748319685258827
1.8240001201629639,car (2).jpg,0.11017778339121144,0.13756039143328563,0.13474317756213874,0.1354175520440998,0.1354373109861983,0.13393142925875537,0.13648571955987449,0.13562931247106938,0.13562812782861325,0.13628189400218654,0.13203079337248724,0.1371021583202074,0.13038018409969618,0.13585023711326566,0.13630513981642006,0.12764404000568866
1.8240001201629639,car (2).jpg,0.11011287392531323,0.13754939437501362,0.13473090645443278,0.13544368123336806,0.13543418174197455,0.13392058866269455,0.1364748566120692,0.13562256224424388,0.13562799371814652,0.13628593966793295,0.1320038148169297,0.13710553343362014,0.13032354477924643,0.1358417210986282,0.13630344108384146,0.12776261601002406
1.8240001201629639,car (2).jpg,0.11019588830422024,0.137565711148466,0.13474729028311852,0.13542772208782697,0.13543623810246444,0.13393549727624623,0.1364880664930423,0.1356304524100366,0.13564086832295277,0.13629722729888288,0.13203653777081226,0.13711773748609274,0.13038608496023238,0.13585383574412296,0.13631696388923692,0.12738567619152977
1.8240001201629639,car (2).jpg,0.11011439384393619,0.13755795509314,0.1347410541464155,0.13543871914609898,0.13544716810550309,0.13393189864538893,0.13648712771977517,0.13563536979381677,0.13562917836060265,0.13628553733653276,0.13199719870057092,0.13710499699175321,0.13033092085491668,0.13585119823827724,0.13630545274084244,0.1278545710867132
1.8240001201629639,car (2).jpg,0.11016327710905995,0.1375617548896974,0.1347425964167829,0.13544613992525814,0.13543652867514236,0.13393187629364448,0.1364837079028735,0.1356285525117579,0.13564212002064227,0.13630178705475177,0.1320185669682702,0.13712144787567232,0.13034475658473452,0.13585070649989922,0.13631763444157058,0.12749571382948324
1.8240001201629639,car (2).jpg,0.11017633052782184,0.13757279665145833,0.134756052166945,0.1354305607593728,0.13545072203287148,0.13394468384321737,0.13649879533038084,0.13564238824157573,0.13563986249445228,0.13629427686861478,0.1320295640265422,0.13711449648314672,0.13037464086707126,0.13586143533723777,0.136316919185748,0.12764419646789985
1.8240001201629639,car (2).jpg,0.11011732192245983,0.13756023497107445,0.13474203762317152,0.13545447712593997,0.13544584935258022,0.13393109398258854,0.13648542898719657,0.13563072063097006,0.13563963897700773,0.13629809901691664,0.13200493240415245,0.13711758102388155,0.13032144371526763,0.13585202525282208,0.13631513104619158,0.1277671981176374
1.8240001201629639,car (2).jpg,0.11019729646412092,0.13757798225617196,0.13475982961175795,0.13544099902403342,0.13544929152122634,0.1339478130874411,0.13650004702807034,0.13564167298575316,0.13565112777365776,0.13630753145307678,0.1320463725383726,0.13712804164028664,0.13039904897201646,0.13586337993900538,0.1363274692091309,0.1273913088311325
1.8250000476837158,car (2).jpg,0.11011955709690537,0.13756644875603302,0.13474963721628633,0.13544803982353684,0.13545622056200748,0.13394034760479304,0.13649604606581284,0.135644757526488,0.1356389013694407,0.13629505917967072,0.13200707817162016,0.13711458589012454,0.13034945045107013,0.13586127887502658,0.13631533221189168,0.12786248360425037
1.8250000476837158,car (2).jpg,0.11016177954218144,0.1375704050148016,0.13475111243142038,0.1354561088032852,0.13544622933223596,0.13394070523270432,0.13649267095240009,0.1356382531688515,0.13565077014574647,0.13631041482811151,0.1320198186659597,0.13713012035252098,0.13035568658777316,0.1358603624535039,0.13632608340097468,0.1275109353674573
1.8250000476837158,car (2).jpg,0.11017463179524324,0.13758314550914114,0.1347659539897387,0.13544128959671134,0.13546082502136528,0.13395514445962245,0.1365087642084079,0.13565313943065874,0.13565034546260182,0.13630529627863125,0.13202963108177557,0.13712551589316319,0.13038579438755446,0.13587334881703245,0.13632751391261982,0.1276517737092702
1.8250000476837158,car (2).jpg,0.11012299926555148,0.13757024855259042,0.13475216296340978,0.13546489303885614,0.13545523708525145,0.13394137578503798,0.13649559903092373,0.13564200826192,0.1356479538259451,0.13630710676993213,0.1320140072124013,0.13712696875655278,0.13033154670376143,0.13586239646224935,0.13632384822652915,0.1277882087574254
1.8250000476837158,car (2).jpg,0.11021897765624257,0.13758942634933308,0.13477109489096342,0.13545215254451662,0.1354583663294752,0.13395816194512392,0.13651010531307523,0.13565273709925854,0.1356624154046077,0.13631940022938255,0.1320537709657873,0.13714040215497042,0.13039431040219193,0.13587538282577788,0.1363388238953142,0.1274024623516157
1.8250000476837158,car (2).jpg,0.11014736266700777,0.13758055270678432,0.13476307061470397,0.13546073561438746,0.13546759759993524,0.1339517693462097,0.13650717723455158,0.1356545028870705,0.13564951844805698,0.13630500570595333,0.13201805287814772,0.13712547118967428,0.13034299079692255,0.13587080071816454,0.13632599399399686,0.12786813859559756
1.8250000476837158,car (2).jpg,0.11019262494952976,0.13758285493646322,0.1347634505943597,0.13546779876563533,0.1354567123003855,0.13395083057294258,0.13650333273450527,0.13564773030850055,0.1356618119075074,0.1363206295753276,0.13203803533769076,0.1371412068177708,0.13036134157912035,0.1358706219042089,0.13633734868018016,0.12752197712921823
1.8250000476837158,car (2).jpg,0.110204761946769,0.13759523780289146,0.13477813569046684,0.135452465468939,0.13547213500405966,0.13396549331730526,0.13652020830156902,0.1356646058755643,0.13566214718367423,0.13631551102584732,0.13203919762840244,0.13713649059969074,0.13038941537015622,0.13588394354390426,0.13633893565403649,0.1276556182093165
1.8250000476837158,car (2).jpg,0.11014485927162877,0.13758234084634074,0.1347638529257599,0.13547613596631716,0.13546730702725732,0.1339521716776099,0.13650690901361812,0.13565372057601457,0.13565897323596157,0.1363166286130701,0.1320138060467012,0.13713689293109094,0.13033438537530725,0.13587258885772097,0.13633455471212325,0.1277914050568825
1.8250000476837158,car (2).jpg,0.11023200872326001,0.13759943993084905,0.1347813543416684,0.13546209907079923,0.1354695645534473,0.13396788495396197,0.1365205212259914,0.13566212483192977,0.13567187019251228,0.13632753626436428,0.13205310041345364,0.1371489181696079,0.1303983337161939,0.135884077654371,0.13634776459309633,0.1274022164824267
1.8250000476837158,car (2).jpg,0.11015080483565388,0.13758790643071012,0.13477136311189689,0.13546777641389088,0.13547725355353993,0.1339599724364248,0.13651576030442242,0.13566360004706382,0.13565698393070505,0.13631148771184537,0.13201803052640326,0.13713222141649978,0.13035318319239417,0.1358779756281347,0.13633323595920038,0.1278735700695002
1.8250000476837158,car (2).jpg,0.11020006808043338,0.13759114743365614,0.13477212307120837,0.13547644889073954,0.1354668599923682,0.13395923482885777,0.13651240754275412,0.13565626867488248,0.1356710655297119,0.1363295255696208,0.1320388176487467,0.13715030397776412,0.13036793534373467,0.1358796296572244,0.13634680346808475,0.12753118604793381
1.8250000476837158,car (2).jpg,0.1102197152638096,0.13760174216052795,0.1347849529725257,0.1354596180271647,0.13547904169309635,0.13397215413715294,0.13652675736269443,0.1356711102332008,0.13566715397443221,0.13632103190672779,0.1320441150121826,0.13714210088754902,0.13039051060563453,0.13588854800326206,0.1363442330174724,0.12765564056106096
1.8250000476837158,car (2).jpg,0.11016048314100303,0.1375880181894324,0.13476968673106274,0.1354826179722092,0.13547278320464887,0.13395749139279026,0.13651234048752076,0.13565854855281692,0.135663510640086,0.13632183656952818,0.13201972925898187,0.13714212323929348,0.13033405009914042,0.1358766792269563,0.13633933798543668,0.1278023574116656
1.8250000476837158,car (2).jpg,0.11025004658103545,0.1376051619774296,0.13478707638824897,0.13546849166971345,0.1354744148819941,0.13397284704123105,0.13652604210687186,0.13566639401512073,0.13567884393678234,0.13633484528480116,0.13206259990484714,0.13715654011446715,0.13040177588484,0.13589011262537393,0.13635531948272223,0.12741059838659743
1.8260002136230469,car (2).jpg,0.11017957153076786,0.13759722710814798,0.13478088495503485,0.13547783469889577,0.13548498725712146,0.1339686672650179,0.13652465629871563,0.13567267485531267,0.13566594698023163,0.13632031665090522,0.13203414613415554,0.13714174325963774,0.1303550607389284,0.13588671516021672,0.1363425342848938,0.1278752688020788
1.8260002136230469,car (2).jpg,0.11022713604296876,0.1375990152477044,0.13478097436201267,0.13548635071353324,0.1354741690128051,0.13396705793941713,0.13651962715621319,0.13566377886101946,0.135679760358305,0.13633710281099115,0.13205075348028583,0.13715888704763496,0.1303648731547443,0.13588671516021672,0.13635505126178876,0.1275345388096021
1.8260002136230469,car (2).jpg,0.11023916128148571,0.13761224748042195,0.13479653117615356,0.135471218582537,0.13548939055077916,0.1339820783116911,0.13653715092386615,0.1356797156548161,0.13567799457049304,0.13633086667428812,0.13205310041345364,0.13715294148360985,0.13039093528877918,0.13589945565455624,0.13635509596527767,0.12764978440401367
1.8260002136230469,car (2).jpg,0.1101749000161767,0.13759867997153757,0.1347815108038796,0.1354945761554928,0.13548400378036543,0.13396915900339593,0.13652340460102613,0.1356714678611121,0.13567569234081414,0.13633343712490048,0.13201934927932613,0.13715450610572172,0.13032881979093788,0.13589089493642986,0.136351430279187,0.12780472669657786
1.8260002136230469,car (2).jpg,0.11026370349689764,0.1376154661316235,0.13479764876337633,0.135478974637863,0.13548462962921018,0.13398359823031405,0.1365356757087321,0.13567723461118156,0.13568693526827516,0.1363427354505939,0.13205508971871016,0.13716505612910462,0.13039039884691225,0.13589925448885615,0.13636320964851495,0.12740190355800432
1.8260002136230469,car (2).jpg,0.11019103797567344,0.13760585488150773,0.1347897138940947,0.1354856131059662,0.13549310094035874,0.13397776442501122,0.1365322782435749,0.1356810120559945,0.13567580409953642,0.13633068786033248,0.1320268594654631,0.1371525168004652,0.13035363022728327,0.13589874039873368,0.13635236905245413,0.12787446413927842
1.8270001411437988,car (2).jpg,0.11023688140355127,0.1376093194018983,0.13479098794352865,0.13549600666713793,0.13548360144896524,0.13397740679709993,0.13652970779296253,0.13567419477393564,0.13568785168979783,0.13634624467447337,0.13204719955291744,0.137168118318095,0.1303678235850124,0.13589704166615507,0.13636345551770396,0.12754343480389532
1.8270001411437988,car (2).jpg,0.1102532205287481,0.13762114347471516,0.1348051142460244,0.13547937696926318,0.1354971689578496,0.13399171191355133,0.13654546577280352,0.1356889692770206,0.13568689056478625,0.1363408802558041,0.1320588224600342,0.13716297741687028,0.1304009265185507,0.13590987156747242,0.13636432723573771,0.12766194375299736
1.8270001411437988,car (2).jpg,0.1101904568303176,0.13760764302106415,0.1347908538330619,0.13550374037071947,0.135492720960703,0.13397885966048953,0.13653205472613034,0.13568087794552777,0.1356843648176628,0.136343182485483,0.13203202271843228,0.13716443028025987,0.13034249905854453,0.13590046148305673,0.13636066154964704,0.12782833013872266
1.8270001411437988,car (2).jpg,0.11028288129364029,0.13762429507068336,0.134807058847792,0.135489971696135,0.13549339151303666,0.13399329888740766,0.13654423642685848,0.13568758346886436,0.1356953618759348,0.1363527266803654,0.13206530446592624,0.13717493560015387,0.13040548627441959,0.1359094245325833,0.13637232916025271,0.1274241211919929
1.8270001411437988,car (2).jpg,0.11020688536249225,0.13761405797172283,0.13479809579826543,0.13549609607411575,0.1355016169549962,0.1339867274745378,0.13654104012740137,0.13569100328576603,0.1356822190501951,0.13633806393600273,0.13203063691027606,0.13715962465520198,0.13036266033204322,0.13590604941917056,0.13635936514846864,0.12789026682260832
1.8270001411437988,car (2).jpg,0.11025275114211454,0.1376162707944239,0.13479758170814296,0.13550514853062015,0.13549068695195757,0.1339844699483478,0.13653674859246595,0.13568074383506104,0.13569493719279016,0.13635384426758818,0.13204588079999457,0.13717565085597644,0.1303703716838803,0.13590450714880314,0.13637107746256322,0.12755396247553377
2.0920000076293945,car (2).jpg,0.1102725771394464,0.13763059826261975,0.1348141219990399,0.1354903740275352,0.13550586378644272,0.13400096553575583,0.13655440647058564,0.1356990722655144,0.1356970159050245,0.13635120676174245,0.1320558273262772,0.1371732145158308,0.1304071850069982,0.13592062275655542,0.1363747431486539,0.12765669109305036
2.0920000076293945,car (2).jpg,0.11020891937123768,0.13761870713456953,0.1348007109523667,0.13551641380982563,0.1355028239491968,0.1339886273728165,0.13654224712160196,0.1356921655764777,0.1356948701375568,0.1363529278460655,0.13202757472128568,0.13717430975130912,0.13034623179986857,0.13591040800933935,0.1363711892212855,0.12782522324624337
2.0920000076293945,car (2).jpg,0.11030091915141572,0.13763719202723407,0.13481883821711996,0.13550441092305313,0.13550546145504253,0.1340041841869574,0.13655666399677563,0.13569860287888083,0.1357077670941075,0.13636394725608197,0.13206586325953762,0.1371866702659929,0.1304112306727446,0.13592001925945513,0.1363848908406366,0.12741705804074502
2.0930001735687256,car (2).jpg,0.1102229115632667,0.1376266196521067,0.13481003162980457,0.13550919419636656,0.13551348573130198,0.13399779158804317,0.13655275244149595,0.13570200034403804,0.13569424428871205,0.13634946332567494,0.13203043574457596,0.13717133696929656,0.1303590617011859,0.13591682295999802,0.13637150214570787,0.12788313661612707
2.0930001735687256,car (2).jpg,0.11026059660441835,0.13762731255618482,0.13480869052513725,0.13551764315577067,0.1355015275480184,0.13399510937870854,0.13654691863619312,0.1356932161084671,0.13570528605047297,0.1363646401601601,0.13204909945119614,0.1371864243968039,0.13036938820712426,0.13591512422741941,0.13638151572722385,0.12755807519651355
2.0930001735687256,car (2).jpg,0.11027964029069427,0.13763985188482425,0.1348238226561335,0.13550043231254008,0.13551525151911395,0.13401021915796033,0.1365636824445346,0.13570834823946334,0.13570575543710653,0.13635999099731339,0.13205703432047777,0.1371820658066351,0.1304013735534398,0.13592822234967022,0.13638325916329136,0.1276501196801805
2.0930001735687256,car (2).jpg,0.11021600487423001,0.13762740196316264,0.1348097634088711,0.13552490747271864,0.1355121222748902,0.13399736690489852,0.13655136663333972,0.13569925107947003,0.13570343085568318,0.13636189089559209,0.1320264571340629,0.13718316104211342,0.13034180615446642,0.13591950516933266,0.13637961582894514,0.12783224169400234
2.0940001010894775,car (2).jpg,0.11029944393628167,0.1376438751988262,0.13482594607185674,0.13551140701906764,0.13551299399292396,0.1340124766841503,0.13656419653465707,0.13570803531504097,0.13571679719886745,0.13637355850619776,0.13206369514032545,0.13719619210913087,0.13040720735874264,0.13593050222760467,0.13639340685527407,0.127429820886829
2.0940001010894775,car (2).jpg,0.1102178600690198,0.13763594032954457,0.13481988874910936,0.13551833605984878,0.13552370047851806,0.13400854277712618,0.13656256485731183,0.13571219273950966,0.13570450373941703,0.13635990159033556,0.1320318215527322,0.13718215521361293,0.13036485080299984,0.1359283341083925,0.13638151572722385,0.12789630179361125
2.0940001010894775,car (2).jpg,0.11025496396481561,0.13763746024816753,0.13481919584503124,0.13552864021404268,0.13551285988245723,0.13400655347186965,0.1365586309502877,0.1357041684632502,0.13571755715817893,0.1363766877504215,0.13204764658780654,0.13719905313242114,0.13037513260544928,0.13592755179733657,0.13639383153841872,0.12757233560947603
2.0940001010894775,car (2).jpg,0.11027671221217063,0.1376524359169526,0.1348360267086061,0.13551420098712455,0.1355281261239202,0.13402304905927767,0.13657704878771887,0.13571994879483565,0.13571715482677874,0.13637150214570787,0.13205432975939868,0.1371940686934076,0.13040550862616404,0.13594064991958738,0.13639506088436376,0.12765277953777068
2.0940001010894775,car (2).jpg,0.11021193685673915,0.13763779552433436,0.13481948641770916,0.13553695506298005,0.1355223817255952,0.13400805103874816,0.13656220722940055,0.13571004697204195,0.13571377971336598,0.13637206093931925,0.13201847756129237,0.13719364401026296,0.13034097913992157,0.13593070339330476,0.1363901882040725,0.12783760611267161
2.0940001010894775,car (2).jpg,0.11030297551190561,0.13765639217572118,0.13483743486850677,0.13552555567330785,0.13552470630701854,0.13402436781220053,0.13657642293887412,0.13571941235296872,0.13572895654785114,0.1363855390412258,0.13205374861404284,0.13720806088543663,0.1304019323470512,0.135942840390544,0.1364055438525133,0.1274238753228039
2.0950000286102295,car (2).jpg,0.11023442271166119,0.13764955254191785,0.13483124343529265,0.1355316800512886,0.13553509986819026,0.13402072447785432,0.1365752829999069,0.13572399446058206,0.13571554550117795,0.1363707421863964,0.13201794111942544,0.1371925264230402,0.13035532895986188,0.1359395323323646,0.1363926468959626,0.1278832260231049
2.0950000286102295,car (2).jpg,0.11027351591271352,0.137648479658184,0.13482865063293584,0.1355400843072038,0.13552229231861737,0.13401636588768553,0.13656799633121447,0.13571469613488865,0.13572681078038343,0.1363853825790146,0.1320529663029869,0.13720779266450317,0.1303767195793056,0.13593685012302997,0.13640281693968975,0.1275772976967451
2.0950000286102295,car (2).jpg,0.11029660526473585,0.1376619354083461,0.13484543679302177,0.13552459454829627,0.13553731269089134,0.13403230268148217,0.13658596713375654,0.1357300741350739,0.13572801777458401,0.1363815380789683,0.1320695736491172,0.13720446225457933,0.13041610335303586,0.135951088184248,0.13640543209379102,0.12765579702327215
2.0950000286102295,car (2).jpg,0.11023194166802665,0.1376466244633942,0.13482925413003613,0.1355467898305404,0.1355316800512886,0.13401734936444157,0.13657065618880465,0.1357201276087913,0.1357218263413699,0.1363795934772007,0.13204409266043815,0.13720173534175578,0.13035655830580692,0.13593875002130867,0.13639792190765404,0.12785314057506805
2.0960001945495605,car (2).jpg,0.11031973932024709,0.13766316475429113,0.13484595088314424,0.13553342348735611,0.13553219414141107,0.1340317885913597,0.1365832849244219,0.13572658726293887,0.13573675730666604,0.1363929374686405,0.13207864845736605,0.1372163310308851,0.13041780208561446,0.1359500376522586,0.13641300933516137,0.1274349170845648
2.0960001945495605,car (2).jpg,0.11024474921759954,0.13765525223675396,0.13483960298771894,0.13553936905138123,0.13554261005432724,0.13402807820178012,0.13658272613081052,0.13573014119030727,0.13572520145478265,0.13638012991906762,0.13204503143370527,0.13720274117025627,0.1303756243438273,0.13594921063771376,0.13640203462863382,0.1279030743721812
2.0960001945495605,car (2).jpg,0.11027959558720536,0.1376569286175881,0.13483895478712973,0.13555139428989818,0.1355329317489781,0.1340265359314127,0.13657830048540837,0.13572399446058206,0.13573646673398812,0.1363946362012191,0.13206651146012682,0.13721740391461895,0.13038881187305593,0.13594657313186803,0.13641215996887207,0.12759587199638747
2.0960001945495605,car (2).jpg,0.11030489776192877,0.13766924442878298,0.1348533269588145,0.13553315526642265,0.1355455381328509,0.13404037166123053,0.13659446079664955,0.1357372713967885,0.13573731610027742,0.1363897858726723,0.13208463872488008,0.1372134253041059,0.13043210720206586,0.1359595371436521,0.13641457395727324,0.12767184557579106
2.0970001220703125,car (2).jpg,0.11023480269131693,0.13765480520186485,0.13483799366211816,0.13555586463878924,0.13554104543221537,0.13402575362035676,0.13658015568019816,0.1357281295333063,0.13573125877753003,0.13638772951218242,0.1320514240326195,0.1372106760395379,0.13036628131464498,0.1359474448499018,0.13640730964032527,0.12787408415962268
2.0970001220703125,car (2).jpg,0.11032159451503688,0.13767150195497296,0.13485435513905944,0.13554299003398299,0.1355413807083822,0.1340404387164639,0.13659251619488194,0.13573575147816555,0.13574610033584839,0.13640071587571095,0.13208935494296015,0.13722489174901148,0.13043400710034456,0.13595871012910726,0.13642248647481042,0.1274587216924097
2.0970001220703125,car (2).jpg,0.1102477219996121,0.13766430469325835,0.13484829781631205,0.1355482873974189,0.13555246717363204,0.1340360354228062,0.13659206915999283,0.13573964068170077,0.13573559501595436,0.13638846711974945,0.13205558145708818,0.1372118830337385,0.13039245520740214,0.13595833014945152,0.1364123387828277,0.12791845237236646
2.0970001220703125,car (2).jpg,0.11028035554651684,0.13766709866131527,0.13484843192677878,0.13556060320861377,0.13554314649619417,0.1340353425187281,0.13658824701169098,0.13573275634440854,0.13574650266724858,0.13640355454725678,0.1320739769427749,0.13722685870252355,0.13040309463776287,0.13595607262326154,0.13642253117829933,0.12761542977278587
2.0970001220703125,car (2).jpg,0.11030286375318334,0.1376787886236654,0.13486246882229672,0.1355418277432713,0.1355544341271441,0.1340494911729683,0.1366035356048984,0.13574815669633827,0.135745541542237,0.1363976983902095,0.1320889749633044,0.13722153898734318,0.13044140552775926,0.13596816491701186,0.13642322408237745,0.12768080862531764
2.0980000495910645,car (2).jpg,0.11023654612738444,0.13766439410023618,0.13484700141513364,0.13556480533657136,0.1355495837985973,0.13403507429779463,0.13658947635763602,0.135738277225289,0.13574100413811255,0.13639718430008702,0.1320622199251914,0.1372203319931426,0.13037993823050717,0.13595712315525094,0.13641732322184125,0.12789196555518692
2.0980000495910645,car (2).jpg,0.11032067809351422,0.1376801297283327,0.1348621782496188,0.1355520871939763,0.13554911441196374,0.13404821712353435,0.13660062987811922,0.13574290403639128,0.13575437048129685,0.13640923189034843,0.1320942276232514,0.13723340776364895,0.13044039969925877,0.13596702497804464,0.13643115895165908,0.1274737867681726
2.0980000495910645,car (2).jpg,0.11024678322634497,0.13767344655674058,0.13485690323792734,0.13555747396439002,0.13556040204291367,0.13404582548687763,0.13660080869207486,0.13575021305682816,0.13574413338233632,0.13639792190765404,0.13205770487281143,0.13722115900768744,0.1303946233266143,0.13596776258561166,0.13642112301839865,0.12793751841038686
2.0980000495910645,car (2).jpg,0.11028044495349466,0.1376764863939865,0.13485761849374991,0.13557050503140747,0.1355518860282762,0.1340452890450107,0.13659696419202855,0.13574312755383583,0.13575557747549744,0.13641356812877276,0.1320693724834171,0.1372367381735728,0.13039325987020253,0.13596532624546603,0.1364314942278259,0.1276292655026037
2.0990002155303955,car (2).jpg,0.11030695412241866,0.13768781872842534,0.13487129776135656,0.13555134958640927,0.13556286073480375,0.13405885655389507,0.13661187280558024,0.1357560915656199,0.1357548398679304,0.13640800254440338,0.13208229179171227,0.13723135140315906,0.1304328895131218,0.13597710561479398,0.13643241064934858,0.1276872235759763
2.0990002155303955,car (2).jpg,0.1102351156157393,0.13767270894917355,0.13485518215360429,0.13557495302855407,0.1355582339237015,0.13404452908569922,0.13659812648274022,0.13574721792307115,0.13575010129810589,0.1364073990473031,0.13205470973905442,0.1372299879467473,0.1303773230764059,0.1359672931989781,0.13642657684404574,0.12790752236932781
2.1000001430511475,car (2).jpg,0.1103271377476618,0.13768980803368186,0.1348716330375234,0.135562480755148,0.1355587927173129,0.13405905771959517,0.13661055405265737,0.1357541469638523,0.13576496520816866,0.13642067598350954,0.1320938252918512,0.13724465069110997,0.13043925976029155,0.13597788792584992,0.136441708975042,0.12748739898054587
2.13700008392334,car (2).jpg,0.11026254120618596,0.13768426480105694,0.134867833240966,0.13556835926393976,0.13557095206629657,0.13405666608293845,0.13661164928813568,0.13575991371392176,0.13575407990861893,0.13640726493683636,0.13205909068096766,0.13723110553397005,0.13039424334695857,0.13597688209734943,0.13643098013770344,0.12794594501804651
2.13700008392334,car (2).jpg,0.11029041383152173,0.13768506946385733,0.13486646978455422,0.13558085388909027,0.13556022322895803,0.1340536933009259,0.1366053460961993,0.135750794202184,0.13576498755991312,0.13642190532945458,0.1320674725851384,0.13724574592658828,0.13039019768121216,0.13597406577754806,0.13644083725700823,0.12764055313355363
2.13700008392334,car (2).jpg,0.11031401727366653,0.13769678177795194,0.13487976907250512,0.13556140787141416,0.1355710414732744,0.13406728316155472,0.13662027706149543,0.13576438406281283,0.1357638476209459,0.13641566919275155,0.13208066011436703,0.13723980036256317,0.13043360476894436,0.13598566633292036,0.1364411054779417,0.12769151511091173
2.13700008392334,car (2).jpg,0.11023679199657345,0.1376828342894118,0.13486405579615304,0.13558467603739213,0.13556771106335055,0.13405306745208115,0.13660720129098908,0.13575452694350804,0.13575953373426602,0.13641515510262908,0.13204344445984895,0.13723834749917357,0.13037086342225832,0.1359754962891932,0.13643551754182787,0.12791364674730857
2.2730000019073486,car (2).jpg,0.11032760713429536,0.1376999110221757,0.13488075254926116,0.13557265079887518,0.1355681357464952,0.13406817723133294,0.13662025470975098,0.1357628417924454,0.13577388355420633,0.13642843203883553,0.13208568925686948,0.13725276437434725,0.13043921505680264,0.13598647099572075,0.13645033674840173,0.1274932327858487
2.2730000019073486,car (2).jpg,0.1102557239241271,0.13769155146974937,0.13487409172941348,0.13557515419425417,0.135577746996611,0.13406422097256435,0.13661920417776158,0.1357678932866923,0.13576036074881087,0.13641367988749503,0.13205538029138808,0.13723720756020635,0.13040123944297308,0.13598425817301968,0.13643701510870637,0.12795942311995306
2.2740001678466797,car (2).jpg,0.11028319421806267,0.13769130560056037,0.13487165538926785,0.13558677710137093,0.13556666053136116,0.13406097996961833,0.13661310215152528,0.13576033839706642,0.1357707990134715,0.1364283426318577,0.13206633264617118,0.13725166913886894,0.13039844547491616,0.13598108422530703,0.13644649224835542,0.1276672187646888
2.2740001678466797,car (2).jpg,0.11031099978816507,0.13770373317047754,0.13488651929933063,0.13556811339475075,0.13557805992103336,0.1340752403825808,0.1366281448755437,0.13577328005710604,0.13577133545533843,0.13642355935854428,0.13207938606493308,0.13724755641788916,0.13043239777474377,0.13599306476033507,0.13644839214663412,0.12771189990185497
2.2740001678466797,car (2).jpg,0.11023878130182997,0.13768971862670404,0.13487138716833438,0.13559158272642882,0.13557519889774308,0.1340608905626405,0.13661500204980398,0.13576317706861224,0.1357668427547029,0.13642273234399943,0.13204453969532726,0.13724612590624402,0.13036965642805773,0.13598213475729642,0.13644291596924257,0.1279374066516646
2.2740001678466797,car (2).jpg,0.11032559547729438,0.13770608010364535,0.13488752512783111,0.13557980335710088,0.13557531065646536,0.13407508392036963,0.13662700493657648,0.13576863089425933,0.13578117022289876,0.13643636690811717,0.13208946670168242,0.13726081100235116,0.13043995266436967,0.1359927518359127,0.1364580033967499,0.12751730561462707
2.2750000953674316,car (2).jpg,0.1102551204270268,0.13769946398728658,0.13488289831672887,0.13558422900250303,0.1355863971217152,0.13407300520813528,0.13662767548891014,0.1357764540048187,0.13576791563843676,0.13642163710852112,0.13206043178563498,0.13724565651961046,0.1304034746174186,0.1359917460074122,0.1364453523093882,0.12798725104179992
2.2750000953674316,car (2).jpg,0.11028442356400771,0.1376989498971641,0.13487990318297186,0.13559627659276444,0.13557466245587615,0.1340688477836666,0.13662101466906246,0.1357672450861031,0.13578108081592094,0.13643866913779606,0.13207630152419825,0.13726302382505223,0.13040805672503195,0.1359911425103119,0.13645748930662743,0.1276972371574923
2.2750000953674316,car (2).jpg,0.1103168335934679,0.13771477493223847,0.13489769517155828,0.13558027274373444,0.13558905697930537,0.13408612568213055,0.13663963367219373,0.13578311482466637,0.13578163960953232,0.13643404232669382,0.13208915377726005,0.13725891110407246,0.1304453394347834,0.13600403946686263,0.13645936685316168,0.12773139062302
2.2750000953674316,car (2).jpg,0.11024702909553398,0.1376999557256646,0.1348820265986951,0.13560371972366805,0.13558532423798134,0.13407206643486816,0.13662570853539807,0.13577466586526227,0.1357767445774966,0.1364320530214373,0.13204914415468505,0.13725640770869346,0.13037701015198352,0.13599395883011328,0.13645239310889162,0.12796494400083352
2.2750000953674316,car (2).jpg,0.11033876065477856,0.1377160042781835,0.13489671169480225,0.13559100158107298,0.13558382667110283,0.13408413637687402,0.13663576682040296,0.13577741512983027,0.13579049090033662,0.13644367592855405,0.13207621211722043,0.13726941642396645,0.13043052022820953,0.13600158077497254,0.13646627354219837,0.12752486050425296
2.2760000228881836,car (2).jpg,0.1102704760754676,0.137711757446737,0.1348935824505785,0.13559567309566414,0.13559663422067572,0.13408328701058472,0.1366382478640375,0.13578610995842338,0.13578061142928738,0.13643247770458194,0.13205193812274196,0.13725765940638296,0.13040208880926238,0.1360043076877961,0.1364573998996496,0.12798175251266392
2.2760000228881836,car (2).jpg,0.11028529528204147,0.1377102598798585,0.13489085553775496,0.13560843594174812,0.13558577127287044,0.13407928604832722,0.13663178820988992,0.13577763864727482,0.13578993210672524,0.13644604521346632,0.13206333751241417,0.13727102574956723,0.13039960776562784,0.1359995467662271,0.13646593826603154,0.12769149275916727
2.2760000228881836,car (2).jpg,0.11031551484054504,0.13772358151955386,0.13490641235189585,0.13558977223512794,0.13559786356662076,0.13409437347583456,0.1366483955560202,0.1357914967288371,0.13579158613581493,0.13644316183843158,0.13208593512605848,0.13726843294721042,0.13044831221679595,0.1360132483855782,0.13646946984165548,0.1277249309688724
2.2760000228881836,car (2).jpg,0.11024584445307785,0.13770974578973602,0.13489145903485525,0.13561306275285037,0.1355956507439197,0.13408163298149503,0.13663556565470286,0.1357851488334118,0.13578762987704635,0.13644358652157623,0.1320548662012656,0.1372677847466212,0.13038865541084474,0.1360053582197855,0.13646437364391967,0.12797567283817207
2.2770001888275146,car (2).jpg,0.1103349385064767,0.13772923651090105,0.13491032390717553,0.13560510553182428,0.13559835530499878,0.1340983967898365,0.1366502954542989,0.13579384366200492,0.13580396900224317,0.13645936685316168,0.13208879614934876,0.13728445914798487,0.13044247841149312,0.13601693642341334,0.1364813609697057,0.12754327834168414
2.2770001888275146,car (2).jpg,0.11026486578760931,0.13772212865616426,0.13490536181990645,0.13560801125860347,0.13560863710744822,0.13409537930433504,0.136650496619999,0.13579847047310717,0.1357893509613694,0.13644316183843158,0.13205602849197728,0.13726767298789894,0.1303953832859258,0.13601394128965633,0.13646748053639896,0.12799695169889352
2.2770001888275146,car (2).jpg,0.11028972092744362,0.13771984877822982,0.1349007797122931,0.13562019295933161,0.13559600837183097,0.13408988077519904,0.13664318759956212,0.13578713813866833,0.13580061624057488,0.13645851748687238,0.13207375342533034,0.13728291687761746,0.13039104704750146,0.1360113484872995,0.13647749411791493,0.1277191865705474
2.4020001888275146,car (3).jpg,0.11032108042491441,0.13773486915050379,0.13491776703807914,0.13560313857831222,0.13560912884582624,0.13410664458354052,0.1366624995067715,0.13580267260106477,0.13580177853128655,0.13645404713798132,0.1320861809952475,0.1372786476944265,0.13042441820197323,0.1360232619670942,0.13647993045806056,0.12773735853878956
2.4020001888275146,car (3).jpg,0.1102469173368117,0.13771937939159626,0.13490046678787074,0.13562528915706742,0.13560550786322448,0.13409117717637745,0.13664888729439822,0.1357918543567484,0.13579833636264044,0.13645411419321468,0.13204324329414885,0.13727721718278135,0.13034828816035846,0.1360144106762899,0.1364750577777693,0.12797424232652693
2.4020001888275146,car (3).jpg,0.11033297155296463,0.13773884776101683,0.134919085791002,0.13561786837790826,0.1356085477004704,0.1341082539091413,0.13666448881202803,0.13580247143536467,0.13581304381049203,0.13646759229512123,0.13207019949796195,0.1372910529125992,0.13039629970744845,0.13602332902232755,0.13648998874306545,0.12752575457403117
2.4020001888275146,car (3).jpg,0.11026631865099891,0.13773124816790203,0.13491244732289878,0.13561862833721974,0.13561773426744153,0.1341038506154836,0.13666321476259408,0.13580488542376584,0.1357998115777745,0.13645232605365826,0.13202768648000796,0.13727433380774662,0.13034627650335748,0.13602156323451559,0.136476711806859,0.12795868551238604
2.4020001888275146,car (3).jpg,0.11028768691869818,0.13772849890333402,0.13490676997980713,0.13562996067165858,0.13560407735157934,0.1340977038857584,0.13665413995434522,0.13579547533935016,0.13580991456626829,0.13646667587359856,0.13203472727951138,0.13728792366837544,0.1303354582590411,0.13601742816179135,0.13648529487672983,0.12767075034031275
2.4020001888275146,car (3).jpg,0.11029982391593741,0.13774532976690887,0.13492487489281593,0.13561391211913967,0.13561771191569708,0.13411513824643354,0.13667273660573204,0.13581054041511303,0.13581324497619213,0.1364651559549756,0.1320435115150823,0.13728620258405239,0.13036923174491308,0.13603184503696503,0.1364900110948099,0.1276521760406704
2.4020001888275146,car (3).jpg,0.1102018115165009,0.13772912475217877,0.13490741818039634,0.13563501216590548,0.13561397917437304,0.1340998049497372,0.13665782799218035,0.13580079505453052,0.13580622652843316,0.13646171378632949,0.13200001502037229,0.13728137460725004,0.1302986002324343,0.1360192610048367,0.1364820091702949,0.1278910267819198
2.4020001888275146,car (3).jpg,0.11027769568892666,0.1377454191738867,0.1349229973462817,0.13562372453495555,0.1356135991947173,0.13411343951385493,0.13666902621615246,0.13580499718248812,0.1358211127902404,0.13647662239988118,0.13203644836383444,0.1372971549388355,0.1303582123348966,0.13602914047588593,0.13649725306001342,0.1274538713638629
2.4030001163482666,car (3).jpg,0.11020491840898018,0.1377397194790506,0.1349200469160136,0.13562616087510118,0.13562526680532297,0.13411254544407672,0.1366709484661756,0.1358143625634149,0.13581062982209086,0.13646482067880877,0.13201219672110043,0.1372847497206628,0.13032624934032552,0.1360315544642871,0.13648755240291982,0.12789165263076455
2.4030001163482666,car (3).jpg,0.11022098931324355,0.13773933949939485,0.13491769998284578,0.13564046599155258,0.1356148508924068,0.1341088574062416,0.13666413118411674,0.13580609241796643,0.13581914583672833,0.13647798585629295,0.13202100330841582,0.1372974455115134,0.13032016966583368,0.13602589947293992,0.13649479436812334,0.12763268531950536
2.4030001163482666,car (3).jpg,0.11024492803155518,0.13775123062744507,0.13493178158185262,0.13561983533142033,0.13562457390124485,0.1341221119907036,0.13667881628022388,0.13581746945589418,0.13581959287161743,0.13647378372833535,0.13203363204403307,0.137293645714956,0.13036017928840868,0.1360380141184347,0.13649604606581284,0.12762390108393443
2.4030001163482666,car (3).jpg,0.1101620477631149,0.1377368584557603,0.1349162918229451,0.1356424105933202,0.13562213756109923,0.13410854448181922,0.13666482408819486,0.13580962399359037,0.1358154577988932,0.13647304612076833,0.1319895991074561,0.13729212579633304,0.1302882513747515,0.13602949810379722,0.13649097221982148,0.12787493352591198
2.4030001163482666,car (3).jpg,0.11024955484265743,0.13775469514783564,0.1349336367766424,0.13563351459902698,0.13562287516866625,0.13412349779885982,0.13667796691393458,0.1358158154268045,0.1358293158804555,0.1364854066354521,0.13202073508748235,0.13730567095347296,0.13034587417195728,0.1360372541591232,0.13650384682462774,0.12743889569507785
2.4030001163482666,car (3).jpg,0.11017999621391251,0.13774689438902074,0.13492782532308403,0.13563349224728252,0.13563253112227094,0.13411976505753578,0.136677251658112,0.1358206657553513,0.1358169553657717,0.1364706544841116,0.1319860004765988,0.13729033765677662,0.13031109485758482,0.1360372094556343,0.13649258154542226,0.12785428051403527
2.4030001163482666,car (3).jpg,0.11020131977812288,0.13774702849948747,0.13492561250038296,0.1356483561573453,0.13562256224424388,0.13411636759237858,0.1366711049283868,0.1358127532378141,0.13582748303741016,0.13648529487672983,0.1319952540988033,0.13730488864241702,0.13030727270928297,0.13603387904571046,0.13650205868507131,0.12760338218252446
2.4040000438690186,car (3).jpg,0.11023817780472968,0.13776137831942778,0.13494213043953543,0.13562924541583601,0.1356336040060048,0.13413190205477502,0.13668766757102818,0.13582652191239858,0.13583092520605627,0.13648377495810687,0.13201494598566843,0.1373037039999609,0.13035555247730643,0.13604809475518403,0.13650518792929506,0.12756909460653001
2.6010000705718994,car (3).jpg,0.11016504289687191,0.13774899545299954,0.13492880879984007,0.13565410055567031,0.13563333578507134,0.1341198544645136,0.13667649169880053,0.13582062105186238,0.13582547138040918,0.13648212092901718,0.13198211127306358,0.13730093238364843,0.13029737088648927,0.136038863484724,0.1365001140833037,0.12783633206323766
2.6010000705718994,car (3).jpg,0.11024834784845684,0.13776428404620697,0.1349436503581584,0.13564341642182068,0.13563188292168174,0.13413317610420897,0.13668742170183917,0.13582603017402056,0.13583899418580464,0.1364946155541677,0.1320176058432586,0.13731452224427726,0.13035991106747521,0.13604637367086098,0.13651280987415432,0.1274157616395666
2.6010000705718994,car (3).jpg,0.11017798455691154,0.13775733265368137,0.13493857651216704,0.13564363993926523,0.13564216472413118,0.1341299127495185,0.1366873546466058,0.13583012054325588,0.1358257619530871,0.13647993045806056,0.13199018025281195,0.137299144244092,0.13032461766298029,0.1360463066156276,0.1365009187461041,0.12782099876654132
2.6010000705718994,car (3).jpg,0.11019935282461081,0.13775525394144703,0.13493475436386518,0.13565778859350544,0.13563087709318125,0.13412528593841624,0.13667964329476873,0.13582247624665217,0.13583767543288178,0.13649680602512432,0.13200727933732026,0.1373159080524335,0.13032338831703524,0.13604492080747138,0.1365127651706654,0.12759873301967775
2.6010000705718994,car (3).jpg,0.1102344674151501,0.13777219656374415,0.13495435684375248,0.13564189650319772,0.13564511515439928,0.13414372612759187,0.1366991116641893,0.13583935181371593,0.13584093878757225,0.136495219051268,0.13203318500914396,0.13731492457567746,0.13037484203277136,0.1360593153309006,0.13651573795267796,0.12756936282746348
2.6010000705718994,car (3).jpg,0.11015201182985447,0.1377566173978588,0.1349386435674004,0.1356645164685865,0.13564274586948702,0.1341293539559071,0.13668563356228275,0.1358306569851228,0.135833316842713,0.13649155336517732,0.13199196839236838,0.13731020835759739,0.13030548456972654,0.1360481618104174,0.13650894302236355,0.12783818725802745
2.6010000705718994,car (3).jpg,0.11024123999372006,0.13777190599106623,0.13495308279431853,0.13565354176205893,0.13564068950899713,0.13414234031943564,0.13669562479205427,0.13583573083111417,0.13584833721498696,0.136505970240351,0.13202618891312945,0.13732556400603818,0.13036143098609818,0.13605759424657754,0.13652318108358158,0.12742255656988102
2.6019999980926514,car (3).jpg,0.11017847629528955,0.13776701095903052,0.13494997590183924,0.13565452523881497,0.13565287120972527,0.13414117802872397,0.13669750233858852,0.13584254811317303,0.1358356637758808,0.1364910169233104,0.13199567878194796,0.13731016365410847,0.13032750103801502,0.1360571695634329,0.1365114240659981,0.1278158131618277
2.6019999980926514,car (3).jpg,0.11019620122864261,0.13776432874969588,0.13494552790469264,0.13566802569246597,0.13564182944796435,0.1341353665751656,0.13668891926871768,0.13583188633106785,0.13584469388064074,0.1365036233071832,0.132009916843166,0.13732281474147018,0.13032443884902464,0.13605142516510788,0.1365201188945912,0.1275977048394328
2.6019999980926514,car (3).jpg,0.11023516031922821,0.1377778739068358,0.1349609506083668,0.13564788677071174,0.13565193243645815,0.13414940347068352,0.13670452078634748,0.13584364334865134,0.1358480689940535,0.1365016116501822,0.13203168744226546,0.1373214065815695,0.1303752220124271,0.13606552911585917,0.13652380693242633,0.1275506544173544
2.6019999980926514,car (3).jpg,0.11015565516420069,0.13776513341249627,0.13494720428552678,0.1356728089657794,0.1356515077533135,0.1341375570461222,0.1366929649344641,0.13583814481951534,0.13584165404339482,0.13649854946119183,0.13199132019177917,0.13731758443326764,0.13030389759587022,0.1360555155343432,0.136516721429434,0.12779627773717375
2.6019999980926514,car (3).jpg,0.11024866077287922,0.1377794161772032,0.13496048122173324,0.135661007244707,0.13564819969513411,0.13414888938056105,0.13670179387352394,0.13584129641548354,0.13585495333134573,0.13651099938285344,0.13202639007882955,0.13733119664564092,0.1303681141576903,0.1360629139617579,0.136530467752274,0.12740243999987125
2.6019999980926514,car (3).jpg,0.11018097969066855,0.13777481171784542,0.1349578437158875,0.13566183425925185,0.13566073902377354,0.13414763768287155,0.13670454313809194,0.13584704081380855,0.13584310690678442,0.1364967613216354,0.1319961034650926,0.1373165562530227,0.13033232901481737,0.13606320453443582,0.1365188671969017,0.12774902614939523
2.6019999980926514,car (3).jpg,0.11019450249606401,0.13777199539804405,0.1349529039803629,0.13567618407919216,0.13564933963410133,0.13414222856071337,0.13669562479205427,0.13583774248811514,0.13585265110166683,0.13651108878983126,0.132009916843166,0.13733063785202954,0.1303316584624837,0.13606038821463445,0.13652796435689502,0.1275519955220217
2.6030001640319824,car (3).jpg,0.11023279103431595,0.13778618875577317,0.13496948897474872,0.1356571627446607,0.13566069432028463,0.13415805359578772,0.13671265682132921,0.13585459570343444,0.1358554674214682,0.13650923359504147,0.13203968936678045,0.13732929674736222,0.13039068941959017,0.13607388866828546,0.13653205472613034,0.12750675559124416
2.6030001640319824,car (3).jpg,0.11015637042002326,0.1377726659503777,0.13495540737574188,0.1356810120559945,0.13566053785807344,0.13414468725260345,0.13670069863804563,0.1358474207934643,0.1358483148632425,0.13650570201941753,0.13200437361054107,0.1373250499159157,0.13032493058740266,0.13606309277571355,0.13652429867080434,0.12775173071047433
2.6030001640319824,car (3).jpg,0.11024883958683486,0.1377863228662399,0.13496861725671497,0.13566972442504457,0.13565691687547168,0.13415595253180893,0.1367090581904719,0.135849320691743,0.13586226235178261,0.136519716563191,0.13203993523596946,0.13733993617772294,0.13038583909104337,0.13607214523221794,0.13653900611865594,0.12737398622917964
2.6030001640319824,car (3).jpg,0.11018529357734842,0.1377819195725822,0.13496582328865805,0.13567048438435605,0.1356693667971333,0.13415595253180893,0.13671169569631764,0.13585792611335828,0.1358501700580323,0.13650574672290644,0.13200334543029613,0.1373250052124268,0.13034779642198044,0.13607286048804051,0.1365266232522277,0.1277105811489321
2.6030001640319824,car (3).jpg,0.11019602241468697,0.13777928206673648,0.1349607494426667,0.13568490125952973,0.13565819092490564,0.1341502081334839,0.13670324673691353,0.1358478678283534,0.13585989306687035,0.13651962715621319,0.13201217436935597,0.13733863977654454,0.13033865455849822,0.13606818897344936,0.1365355192465209,0.127518087925683
2.6030001640319824,car (3).jpg,0.11024325165072103,0.13779461536343282,0.13497798263764174,0.13566617049767618,0.13566954561108893,0.13416639079646955,0.13672030111793293,0.13586127887502658,0.13586130122677104,0.13651600617361143,0.1320357107562674,0.13733568934627643,0.13038530264917644,0.13608025891545522,0.13653779912445535,0.12745458661968548
2.6030001640319824,car (3).jpg,0.11016017021658066,0.13777749392718006,0.13496021300079977,0.13568579532930794,0.13566527642789797,0.13415018578173946,0.13670528074565896,0.13585220406677773,0.13585329930225604,0.13651093232762007,0.13199617052032597,0.1373298555409736,0.1303210637356119,0.13606903833973866,0.1365283666882952,0.1277006346226495
2.6030001640319824,car (3).jpg,0.11024834784845684,0.13779293898259867,0.1349744957655067,0.13567578174779196,0.13566342123310818,0.13416227807548978,0.1367157190103196,0.13585595915984622,0.13586782793615199,0.13652441042952662,0.13202788764570805,0.1373446076923141,0.1303749761432381,0.13607679439506465,0.13654383409545828,0.1273285004292131
2.6030001640319824,car (3).jpg,0.11018553944653743,0.13778726163950702,0.13497036069278248,0.13567408301521336,0.1356738147942799,0.13416040052895553,0.13671670248707563,0.13586049656397065,0.13585484157262345,0.13650885361538573,0.13200039500002803,0.13732862619502856,0.13034238729982225,0.1360761685462199,0.13652975249645144,0.12765251131683722
2.6030001640319824,car (3).jpg,0.11020131977812288,0.1377848700028503,0.13496573388168023,0.13568908103574287,0.13566295184647462,0.13415474553760834,0.1367085664520939,0.13585294167434475,0.1358647657471616,0.1365234269527706,0.1320108109129442,0.13734308777369114,0.13033268664272865,0.13607243580489586,0.1365392296361005,0.12748044758802027
2.6030001640319824,car (3).jpg,0.11024410101701033,0.13779875043615705,0.13498151421326568,0.13566829391339943,0.13567254074484594,0.13416960944767112,0.13672389974879023,0.13586543629949527,0.13586481045065052,0.13651868838294606,0.13203488374172256,0.13733893034922245,0.13038769428583316,0.13608265055211194,0.13654070485123454,0.1274081173429629
2.9860000610351562,car (3).jpg,0.11015710802759028,0.1377810702062929,0.13496338694851243,0.1356881199107313,0.13566889741049973,0.13415360559864112,0.13670890172826072,0.13585595915984622,0.13585785905812492,0.13651558149046678,0.13199688577614854,0.1373347058695204,0.13032287422691277,0.13607368750258536,0.13653241235404162,0.12766583295653258
2.9860000610351562,car (3).jpg,0.1102462691362225,0.13779725286927855,0.13497923433533124,0.13568085559378332,0.1356679586372326,0.13416777660462578,0.13672059169061085,0.13586163650293787,0.1358723653402764,0.13653013247610718,0.132039421145847,0.13735059795982812,0.13038248632937507,0.1360820247032672,0.1365487738309829,0.12730686394058036
2.9870002269744873,car (3).jpg,0.11018048795229053,0.137792268430265,0.13497693210565234,0.13568047561412758,0.13567987211702728,0.13416728486624777,0.13672264805110074,0.13586793969487426,0.13585993777035926,0.13651573795267796,0.13201624238684684,0.1373355999392986,0.13035459135229485,0.13608314229048996,0.136535720412221,0.12763208182240507
2.9870002269744873,car (3).jpg,0.11019309433616332,0.13778786513660732,0.13497009247184902,0.1356945125096455,0.13566688575349875,0.13415950645917732,0.1367121650829512,0.13585703204358007,0.135868565543719,0.1365279196534061,0.1320200645351487,0.13734773693653785,0.13034001801491,0.13607686145029801,0.13654365528150264,0.1274635720209565
2.9870002269744873,car (3).jpg,0.1102336180488608,0.13780431602052642,0.13498817503311336,0.13567687698327027,0.13567884393678234,0.13417584558437415,0.13673015823723772,0.13587113599433137,0.1358716277327094,0.13652579623768285,0.13204295272147093,0.13734628407314825,0.13039339398066926,0.1360902724969712,0.136548483258305,0.127382055208928
2.9870002269744873,car (3).jpg,0.11014836849550826,0.1377871722325292,0.1349702489340602,0.13569670298060213,0.1356753123611584,0.1341601099562776,0.1367153166789194,0.135862821145394,0.13586259762794944,0.136519716563191,0.13200354659599622,0.1373393103288782,0.13032439414553573,0.1360786719415989,0.13653744149654407,0.1276255104095352
2.9870002269744873,car (3).jpg,0.11023706021750691,0.13780141029374723,0.13498332470456656,0.1356860635502414,0.1356721160617013,0.13417128582850527,0.13672398915576806,0.13586619625880675,0.13587728272405658,0.1365337758104534,0.13203727537837928,0.13735448716336335,0.1303794688438736,0.13608636094169152,0.13655369121476307,0.12725109633816437
2.9870002269744873,car (3).jpg,0.11017742576330015,0.13779834810475686,0.13498207300687706,0.13568597414326358,0.13568532594267438,0.13417171051164992,0.136727766600581,0.13587350527924363,0.1358668221076515,0.13652074474343595,0.13200734639255363,0.1373407631922678,0.1303438625149563,0.13608828319171468,0.13654220241811305,0.127558343417447
2.9870002269744873,car (3).jpg,0.11023723903146256,0.13780954632872897,0.1349923548093265,0.13568085559378332,0.13568458833510735,0.13418085237513214,0.13673529913846244,0.13587685804091193,0.13587739448277886,0.1365308700836742,0.13203537548010058,0.13735138027088406,0.13038266514333072,0.1360952792877292,0.1365538253252298,0.12728312638796882
2.9870002269744873,car (3).jpg,0.11015272708567704,0.137794771825644,0.13497711091960798,0.13570293911730516,0.13568380602405142,0.13416719545926994,0.13672253629237846,0.1358693702065194,0.13586963842745287,0.13652648914176096,0.13200093144189495,0.13734579233477023,0.13031864974721072,0.13608484102306856,0.13654340941231363,0.12753777981254813
2.9880001544952393,car (3).jpg,0.11024132940069788,0.13780760172696135,0.13498958319301405,0.13569225498345552,0.1356794697856271,0.13417774548265285,0.1367303146994489,0.1358708677733979,0.1358826247909814,0.13653938609831168,0.13204250568658182,0.13736005274773272,0.13038308982647537,0.13609130067721614,0.13655894387471007,0.12717239584593723
2.9880001544952393,car (3).jpg,0.11018294664418062,0.13780217025305871,0.13498658805925703,0.13569082447181038,0.13569048919564355,0.1341764714332189,0.1367328627983168,0.13587770740720123,0.13587051014548662,0.1365253715545382,0.1320205562735267,0.1373456135208146,0.13035997812270858,0.13609335703770603,0.13654620338037055,0.12745351373595162
2.9880001544952393,car (3).jpg,0.11019557537979786,0.13779861632569032,0.13498086601267648,0.13570774474236305,0.13567879923329343,0.13417005648256022,0.13672280451331192,0.13586843143325228,0.13587826620081261,0.1365382238076,0.13202527249160678,0.13735804109073174,0.13034102384341048,0.1360875232324032,0.1365532218281295,0.1272769796582436
2.9880001544952393,car (3).jpg,0.11024823608973457,0.13781236264853033,0.13499608755065054,0.1356871587857197,0.13568724819269753,0.1341841157298226,0.13673769077511916,0.13587983082292449,0.13587960730547993,0.1365341781418536,0.1320575707623447,0.137354665977319,0.1303971714254822,0.13609793914531937,0.13655670870026454,0.12715357567710586
2.9880001544952393,car (3).jpg,0.1101770010801555,0.13779588941286677,0.13497901081788669,0.13570794590806315,0.135685013018252,0.1341681118807926,0.13672338565866776,0.1358704207385088,0.1358704654419977,0.13652733850805027,0.13201968455549296,0.13734713343943755,0.13032899860489353,0.13608620447948033,0.13654526460710342,0.12737847892981516
2.9880001544952393,car (3).jpg,0.11026915732254473,0.13780878636941749,0.1349913042773371,0.13569752999514698,0.13568114616646124,0.1341782148692864,0.1367311640657382,0.13587283472690997,0.1358839211921598,0.13654039192681217,0.13205274278554235,0.13736150561112231,0.13038110052121885,0.13609246296792782,0.13656108964217778,0.1269687714539494
2.9880001544952393,car (3).jpg,0.1102111098421943,0.13780315372981475,0.13498741507380188,0.13569408782650086,0.13569089152704375,0.13417620321228543,0.1367322145977276,0.13587833325604598,0.13586928079954158,0.13652309167660376,0.13202328318635026,0.13734393713998044,0.13035445724182812,0.13609174771210525,0.13654486227570323,0.1272741856901867
2.989000082015991,car (3).jpg,0.11021808358646436,0.13779778931114547,0.1349792566870757,0.13570883997784136,0.13567748048037057,0.1341678213081147,0.13672115048422223,0.1358664644797402,0.13587598632287817,0.13653451341802042,0.13202478075322877,0.13735500125348582,0.13033898983466505,0.13608495278179084,0.136551724261251,0.1270495283066664
