Timestamp,Filename,1/Fp1,2/Fp2,3/Cz,4/Pz,5/P7,6/P8,7/O1,8/O2,9/CP5,10/CP6,11/CP1,12/CP2,13/PO3,14/PO4,15/P3,16/P4
0.06200003623962402,black.png,0.10797580128619687,0.13969098206650998,0.1369032054428107,0.137141363279982,0.13754718155231255,0.1360323144235986,0.138608956469173,0.13774930837742191,0.13777423057248958,0.13844154190320276,0.13310872860058887,0.1393162774224612,0.13120183422587325,0.13794743424027375,0.13842623095825088,0.128894664811452
0.06200003623962402,black.png,0.1080355474991259,0.13970269438060456,0.13691630356506151,0.1371192127012268,0.13755111545933668,0.1360440043859487,0.13862100405943442,0.13775782439205939,0.13777733746496887,0.13843910556305714,0.13314815707780803,0.13931513748349397,0.13126790598248314,0.1379563078828225,0.1384305224931863,0.12874289646660048
0.06200003623962402,black.png,0.10795389657663067,0.13968684699378575,0.13690054558522052,0.1371359094543349,0.13755111545933668,0.13602927458635267,0.13860859884126173,0.13775020244720013,0.13776689920030824,0.13843105893505323,0.13311172373434588,0.1393060179717562,0.13120525404277492,0.13794665192921782,0.13841860901339162,0.12908872265681298
0.06200003623962402,black.png,0.10803159124035731,0.1396996768951031,0.13691210143710392,0.13713161791939948,0.13754568398543404,0.1360395563888021,0.13861519260587604,0.13775225880769001,0.13778288069759378,0.1384477780399058,0.13313090153108853,0.13932394407080936,0.13123909458388025,0.13795429622582153,0.1384357751531333,0.12865462942774647
0.06299996376037598,black.png,0.10798657482702433,0.13970016863348111,0.13691489540516083,0.1371262087972413,0.13756007850886326,0.13604322207489278,0.13862274749550194,0.13776048424964957,0.13777226361897751,0.13843365173741004,0.1331143165367027,0.13930968365784688,0.13122637644128518,0.13795599495840014,0.1384248227983502,0.1289999415278365
0.06299996376037598,black.png,0.10797392373966262,0.13969024445894296,0.1369028031114105,0.13714087154160398,0.13754557222671177,0.13603193444394285,0.13860857648951727,0.13774814608671024,0.13777356002015592,0.13844125133052484,0.133104660583098,0.13931650093990575,0.13120143189447306,0.1379481047926074,0.1384258733303396,0.1288811196543121
0.06299996376037598,black.png,0.10802942312114515,0.13970220264222655,0.13691637062029488,0.13711974914309372,0.13755013198258065,0.13604498786270475,0.1386209593559455,0.13775858435137087,0.1377756163806458,0.13843818914153447,0.13313264496715604,0.13931451163464922,0.13125635013059975,0.13795548086827766,0.13842898022281888,0.1287278313908376
0.06299996376037598,black.png,0.10794636403874923,0.13968481298504032,0.13689873509391964,0.1371341660182674,0.13754836619476868,0.13602844757180782,0.1386070565708943,0.13774658146459837,0.1377646640258627,0.13843009781004165,0.1330981562254615,0.1393051686054669,0.13119993432759455,0.13794564610071733,0.1384165750046462,0.12907589275549564
0.06299996376037598,black.png,0.10802137649314124,0.13969498302876748,0.13690796636437969,0.1371285557304091,0.13754063249118714,0.13603642714457836,0.13861215276863012,0.13775013539196676,0.1377762198777461,0.13844290535961454,0.13312524653974134,0.13931871376260682,0.131239966301914,0.13795042937403076,0.13842960607166363,0.1286661629278854
0.06299996376037598,black.png,0.10797861760599824,0.13969355251712234,0.1369089051376468,0.13712164904137242,0.13755348474424894,0.1360384611533238,0.13861765129776613,0.13775874081358205,0.1377671227177528,0.13842996369957491,0.13311364598436903,0.139305369771167,0.13123149499076545,0.13795293276940976,0.1384196148418921,0.12900517183603905
0.06299996376037598,black.png,0.10797329789081787,0.13968523766818497,0.13689819865205272,0.1371372058555133,0.13754159361619872,0.13602782172296307,0.13860482139644878,0.13774532976690887,0.13777034136895436,0.13843863617642357,0.1331027159813304,0.13931308112300408,0.13120098485958395,0.13794457321698347,0.13842200647854883,0.12888898746836036
0.06399989128112793,black.png,0.10803022778394554,0.13969990041254765,0.13691413544584935,0.13711854214889313,0.1375482991395353,0.1360428644469815,0.13861943943732255,0.13775594684552514,0.1377743646829563,0.13843769740315645,0.13313253320843377,0.139312879957304,0.13125798180794498,0.13795382683918797,0.13842708032454018,0.12873346403044034
0.06399989128112793,black.png,0.10794732516376081,0.13968213077570568,0.1368962093467962,0.13713208730603305,0.13754646629648998,0.13602659237701803,0.13860508961738224,0.13774718496169866,0.13776385936306232,0.13842920374026343,0.13309419996669292,0.13930329105893266,0.13119325115600242,0.13794412618209437,0.13841440688543402,0.1290742610781504
0.06399989128112793,black.png,0.10802535510365428,0.13969368662758908,0.13690637939052336,0.13712757225365307,0.13754054308420932,0.1360348625224665,0.13861072225698498,0.1377479672727546,0.13777570578762363,0.1384408713508691,0.13312303371704026,0.13931623271897228,0.131237217037346,0.13794734483329593,0.13842739324896255,0.1286658723552075
0.06399989128112793,black.png,0.10799126869335994,0.1396908256042988,0.13690564178295633,0.13711847509365976,0.13755089194189213,0.13603419197013283,0.13861405266690882,0.13775328698793496,0.13776520046772964,0.1384258733303396,0.13311255074889072,0.1393015699746096,0.13122943863027556,0.1379485071240076,0.1384162173767349,0.12900016504528106
0.06500005722045898,black.png,0.1079820374228999,0.1396830695489728,0.13689582936714045,0.1371346130531565,0.13753886670337517,0.1360239101676834,0.13860133452431375,0.13774137350814028,0.13776911202300932,0.13843508224905518,0.13310209013248564,0.13931010834099153,0.13119772150489348,0.137941063993104,0.13841950308316983,0.12888639466600355
0.06500005722045898,black.png,0.10803865439160519,0.13969770994159103,0.1369117661609371,0.1371165528436366,0.13754586279938968,0.13603881878123508,0.1386163101930988,0.1377521694007122,0.13777393999981166,0.13843503754556627,0.13313273437413387,0.13931111416949202,0.13125793710445607,0.13795174812695363,0.1384257168681284,0.12872606560302563
0.06500005722045898,black.png,0.1079569811173655,0.1396821754791946,0.13689614229156283,0.13713228847173314,0.13754584044764523,0.13602469247873933,0.13860403908539284,0.13774450275236402,0.137762518258395,0.13842638742046207,0.1330924118271365,0.1393013241054206,0.13119094892632352,0.13794204746986002,0.13841295402204443,0.12906192291521107
0.06599998474121094,black.png,0.10803074187406801,0.13969165261884364,0.13690430067828901,0.13712623114898576,0.1375375479504523,0.13603244853406532,0.13860748125403896,0.13774490508376422,0.13777378353760047,0.13843870323165694,0.1331194574379274,0.13931453398639368,0.13123194202565455,0.13794692015015128,0.1384255157024283,0.12865458472425756
0.06599998474121094,black.png,0.10799900239694148,0.13968881394729782,0.13690396540212219,0.13711724574771472,0.1375484108982576,0.13603307438291007,0.13861119164361854,0.13775062713034478,0.13776265236886173,0.1384236158041496,0.13311447299891388,0.1392996700763309,0.1312302209413315,0.1379474118885293,0.13841442923717848,0.12898512232126264
0.09500002861022949,black.png,0.10798760300726927,0.13967996265649352,0.13689332597176146,0.13713318254151136,0.13753663152892964,0.13602196556591578,0.13859818292834555,0.13773728313890496,0.13776580396482993,0.13843253415018728,0.13311134375469014,0.13930794022177936,0.1312058575398752,0.1379400581646035,0.13841733496395767,0.128883421883991
0.2669999599456787,black.png,0.10805012083651076,0.13969261374385522,0.13690774284693513,0.13711427296570217,0.13754179478189882,0.13603542131607788,0.13861148221629646,0.13774763199658777,0.13776828500846447,0.1384305671966752,0.13315124161854286,0.1393070685037456,0.13127479031977538,0.13794864123447434,0.13842140298144853,0.12872894897806036
0.2669999599456787,black.png,0.10797499662339648,0.13967605110121384,0.1368914484252272,0.1371289580618093,0.13754143715398753,0.13602098208915975,0.1385986076114902,0.13774059119708434,0.13775833848218186,0.13842325817623832,0.1331156129378811,0.13929853013736368,0.13121099844109993,0.1379403040337925,0.13841002594352078,0.12906934369437023
0.2669999599456787,black.png,0.10805472529586856,0.13968715991820813,0.13690094791662072,0.1371249570995518,0.13753437400273966,0.13602909577239702,0.13860336853305918,0.13774068060406217,0.1377704754794211,0.13843655746418923,0.1331393728422371,0.1393126787916039,0.1312485270200404,0.13794513201059486,0.13842363815589406,0.1286720637884216
0.2669999599456787,black.png,0.10801880604252888,0.13968736108390822,0.13690329484978853,0.1371184080384264,0.137547449773246,0.13603247088580978,0.1386099175941846,0.1377513647379118,0.1377610653950054,0.13842305701053823,0.13313499190032385,0.13929935715190853,0.1312540702526653,0.1379482165513297,0.13841409396101165,0.12900157320518174
0.2669999599456787,black.png,0.10800910538543528,0.13967669930180304,0.13689042024498227,0.1371322661199887,0.13753377050563936,0.13601941746704788,0.1385959030504111,0.13773692551099367,0.13776073011883858,0.13842790733908503,0.13312589474033054,0.13930358163161058,0.131223470714506,0.13793663834770184,0.13841324459472235,0.12890441017203452
0.2669999599456787,black.png,0.10806882924661985,0.13968872454032,0.1369040548091,0.1371123060121901,0.13753792793010805,0.13603104037416464,0.13860797299241698,0.13774398866224155,0.1377664745171636,0.13842851083618532,0.13315763421745708,0.139305369771167,0.13127890304075515,0.1379467636879401,0.1384200171732923,0.12873335227171806
0.26799988746643066,black.png,0.1079870889171468,0.13967406179595732,0.1368895038234596,0.13712799693679772,0.13753922433128646,0.136018098714125,0.1385969088789116,0.13773795369123862,0.1377547174995801,0.13841948073142538,0.13312055267340572,0.13929528913441766,0.13121578171441337,0.1379375100657356,0.13840665083010803,0.1290742610781504
0.26799988746643066,black.png,0.10806444830470661,0.13968289073501716,0.13689679049215203,0.13712231959370608,0.13753003776431533,0.13602482658920606,0.13859959108824624,0.1377384677813611,0.1377653122264519,0.1384314165629645,0.13314594425510695,0.13930796257352382,0.13125485256372124,0.1379409075308928,0.13841860901339162,0.12868373139902728
0.26799988746643066,black.png,0.10803159124035731,0.13968170609256103,0.1368977069136747,0.13711409415174652,0.13754157126445427,0.1360264582665513,0.1386047096377265,0.13774517330469768,0.1377568185635589,0.1384187207721139,0.13313883640037016,0.13929533383790657,0.13125208094740878,0.13794367914720526,0.1384096683156095,0.12900112617029263
0.26799988746643066,black.png,0.10802383518503132,0.13967517938318008,0.1368888109193815,0.13713233317522205,0.1375318035521273,0.13601718229260235,0.1385939137451546,0.13773480209527042,0.1377607748223275,0.13842813085652958,0.13312938161246557,0.13930402866649969,0.1312216155197162,0.13793683951340194,0.1384132669464668,0.12891205446863824
0.2690000534057617,black.png,0.10808905757535191,0.13968968566533158,0.13690454654747802,0.13711539055292493,0.13753803968883033,0.13603148740905374,0.13860799534416143,0.1377446592145752,0.13776533457819637,0.13842824261525186,0.13316675372919484,0.13930534741942255,0.13128361925883522,0.13794678603968455,0.1384193242692142,0.12874130949274415
0.2690000534057617,black.png,0.10801002180695794,0.13967327948490138,0.13688838623623684,0.1371285110269202,0.13753759265394122,0.13601686936817997,0.13859489722191062,0.1377377078220496,0.13775357756061288,0.13841919015874746,0.13312750406593132,0.13929504326522865,0.13121710046733623,0.1379370630308465,0.13840582381556318,0.12908805210447932
0.2690000534057617,black.png,0.10808744824975113,0.1396826225140837,0.13689587407062936,0.1371236606983734,0.13752898723232593,0.13602341842930538,0.13859824998357892,0.13773603144121546,0.1377637252525956,0.1384307683623753,0.13314797826385238,0.1393072249659568,0.13125380203173184,0.13793994640588123,0.1384174690744244,0.12870331152717013
0.26999998092651367,black.png,0.10805512762726875,0.13968009676696025,0.13689562820144036,0.1371138035790686,0.13753913492430864,0.13602433485082804,0.13860247446328097,0.1377424687436186,0.13775317522921268,0.13841568093486797,0.13313926108351481,0.13929233870414956,0.13125293031369809,0.1379408628274039,0.13840640496091902,0.1290072952517623
0.26999998092651367,black.png,0.10804223067071804,0.1396725642290788,0.13688568167515774,0.13713054503566563,0.13752838373522563,0.13601447773152325,0.1385903598177862,0.13773082348475738,0.1377584725926486,0.13842602979255078,0.13312942631595448,0.1393018158437986,0.13121707811559177,0.1379352078360567,0.13841087530981008,0.12892665015776755
0.2709999084472656,black.png,0.10810555316275992,0.13968700345599694,0.1369014620067432,0.13711369182034633,0.1375343963544841,0.13602891695844138,0.1386045084720264,0.1377423569848963,0.1377614677264056,0.13842328052798278,0.13316686548791712,0.13930083236704258,0.1312810264564784,0.13794227098730458,0.13841530095521223,0.1287435893706786
0.2709999084472656,black.png,0.10803192651652414,0.13966968085404408,0.13688413940479033,0.13712547118967428,0.1375337481538949,0.13601268959196683,0.1385905609834863,0.13773229869989143,0.1377511635722117,0.13841463040287857,0.13313349433344535,0.13929119876518234,0.13122512474359568,0.13793321853080018,0.13840309690273964,0.12908872265681298
0.2709999084472656,black.png,0.10811266101749671,0.13967915799369313,0.13689209662581642,0.13712102319252767,0.1375261038572912,0.1360197080397258,0.13859514309109963,0.13773182931325786,0.1377623617961838,0.1384272144350069,0.13315799184536836,0.13930469921883334,0.13126880005226135,0.13793759947271342,0.1384157703418458,0.12870331152717013
0.2720000743865967,black.png,0.10807801581359099,0.13967980619428233,0.13689511411131788,0.13711313302673495,0.1375392466830309,0.1360239548711723,0.13860310031212572,0.13774298283374106,0.1377535105053795,0.1384145633476452,0.1331485147057193,0.139292115186705,0.13126674369177146,0.13794137691752636,0.1384069190510415,0.12900400954532737
0.2720000743865967,black.png,0.10806163198490525,0.13966927852264388,0.13688221715476717,0.13712690170131941,0.13752583563635773,0.13601168376346634,0.13858823640206294,0.13773015293242372,0.13775207999373437,0.1384193242692142,0.13313709296430265,0.13929578087279568,0.13122845515351952,0.13793017869355426,0.13840463917310705,0.1289295782362912
0.2720000743865967,black.png,0.10812734611360385,0.13968058850533827,0.13689464472468432,0.13710513110221995,0.13752802610731435,0.13602328431883864,0.13859862996323466,0.13773768547030515,0.13775748911589256,0.13841972660061438,0.13316983826992967,0.13929743490188537,0.1312832839826684,0.13793952172273657,0.1384113670481881,0.12873666032989745
0.2720000743865967,black.png,0.10804679042658692,0.1396653222638753,0.13687962435241036,0.13711876566633768,0.13752912134279266,0.13600913566459844,0.13858689529739562,0.1377300635254459,0.13774494978725313,0.13840859543187564,0.13313213087703357,0.13928514144243495,0.1312197156214375,0.1379280999813199,0.13839672665556987,0.12908809680796823
0.2720000743865967,black.png,0.1081199700379336,0.1396738159267683,0.13688624046876913,0.13711371417209078,0.1375206500316441,0.13601467889722335,0.13858942104451907,0.13772823068240056,0.13775634917692534,0.13842129122272626,0.13315050401097583,0.1392985748408526,0.1312620721771803,0.13793107276333247,0.13840969066735395,0.12869260504157604
0.4049999713897705,black.png,0.10808896816837409,0.13967164780755614,0.13688646398621368,0.1371028065207966,0.13753137886898265,0.13601557296700156,0.13859462900097716,0.1377347573917815,0.13774588856052025,0.13840622614696338,0.13314643599348497,0.1392834203581119,0.1312656261045487,0.13793232446102197,0.13839898418175986,0.1289936383359001
0.4049999713897705,black.png,0.10807267374666617,0.13966293062721857,0.1368751987070082,0.1371199056053049,0.13752056062466628,0.13600446415000728,0.13858146382349298,0.13772177102825298,0.1377475202378655,0.138413669277867,0.13313604243231325,0.13928979060528165,0.1312297739064424,0.13792387550161786,0.13840010176898263,0.1289237220792439
0.40599989891052246,black.png,0.10813485629974083,0.13967578288028037,0.13688957087869297,0.13710101838124017,0.13752514273227961,0.1360184563420363,0.13859471840795498,0.1377326563278027,0.13775567862459168,0.13841695498430193,0.1331726322379866,0.139294372712895,0.13129421398570704,0.1379369065686353,0.13840984712956514,0.12872611030651454
0.40599989891052246,black.png,0.10805132783071135,0.13966340001385213,0.1368774562331982,0.13711791630004838,0.13752979189512632,0.13600812983609795,0.13858649296599543,0.1377294153248567,0.1377425134471075,0.13840622614696338,0.13313085682759962,0.13928230277088913,0.13122704699361884,0.13792617773129676,0.13839487146078008,0.12908579457828934
0.40599989891052246,black.png,0.10812164641876774,0.13966923381915497,0.1368817030646447,0.13711092020403387,0.1375179007670761,0.13601087910066595,0.13858609063459523,0.13772364857478722,0.13775404694724644,0.1384193242692142,0.13315264977844354,0.1392962726111737,0.13125889822946765,0.13792901640284258,0.13840758960337515,0.1286930297247207
0.40599989891052246,black.png,0.10809665716846671,0.13967158075232278,0.13688677691063605,0.13710401351499718,0.1375324517527165,0.13601664585073542,0.1385947631114439,0.1377353608888818,0.13774615678145372,0.13840662847836357,0.13314898409235287,0.1392839120964899,0.1312577806422449,0.1379328609028889,0.1383995206236268,0.12899527001324534
0.40599989891052246,black.png,0.10808065331943671,0.13966020371439503,0.13687323175349614,0.13711988325356045,0.1375194430374435,0.13600341361801788,0.13857956392521428,0.1377210110689415,0.137746268540176,0.13841185878656612,0.13313204147005575,0.1392885165558477,0.13121879919991483,0.13792222147252817,0.13839880536780422,0.12892291741644352
0.4070000648498535,black.png,0.1081515754045934,0.139675469955858,0.13688934736124841,0.13710191245101838,0.13752507567704625,0.13601827752808066,0.13859386904166568,0.1377316057958133,0.13775355520886842,0.13841404925752274,0.13316650786000583,0.13929193637274936,0.1312811829186896,0.137933307937778,0.13840745549290842,0.12871544852440936
0.4070000648498535,black.png,0.1080688068948754,0.13965895201670553,0.13687251649767357,0.1371139600412798,0.13752496391832397,0.1360024971964952,0.1385809497333705,0.13772219571139763,0.137738758354039,0.13840159933586113,0.13312750406593132,0.13927812299467598,0.13122257664472778,0.13792099212658313,0.13839104931247823,0.1290902202236915
0.40799999237060547,black.png,0.10814560748882383,0.13966588105748667,0.1368777021023872,0.1371079027185324,0.13751356452865177,0.1360066546209639,0.13858162028570417,0.13772031816486338,0.13774993422626666,0.1384147645133453,0.1331550190633558,0.13929218224193837,0.1312586747120231,0.13792454605395152,0.1384035215858843,0.12868855937582963
0.40799999237060547,black.png,0.10811804778791044,0.13966715510692063,0.1368815018989446,0.13709826911667217,0.13752661794741367,0.1360114602460218,0.13858939869277462,0.13773044350510164,0.13774052414185098,0.13840054880387173,0.1331570754238457,0.1392781676981649,0.13126638606386018,0.13792763059468635,0.13839379857704623,0.12900020974876997
0.40799999237060547,black.png,0.10809587485741078,0.13965720858063801,0.13686907432902745,0.13711592699479186,0.137514704467619,0.13599898797261573,0.13857603234959034,0.13771759125203983,0.1377431169442078,0.1384088189493202,0.13314650304871833,0.13928565553255742,0.13123464658673364,0.13791949455970462,0.13839527379218028,0.12894868897780049
0.40799999237060547,black.png,0.10816279598030996,0.1396714242901116,0.1368848546606129,0.13709621275618228,0.13751937598221015,0.1360134048477894,0.138590203355575,0.13772778364751145,0.13774939778439974,0.13841045062666543,0.13318481393871473,0.13928858361108107,0.13130174652358848,0.13792957519645396,0.13840358864111765,0.12871750488489925
0.40799999237060547,black.png,0.10808241910724868,0.13965819205739405,0.136871801241851,0.1371129095092904,0.13752382397935675,0.13600196075462828,0.1385806591606926,0.1377233580021093,0.1377405688453399,0.1384038121585622,0.13314733006326318,0.13928060403831052,0.1312382675693354,0.13792407666731796,0.13839268098982346,0.129115723564115
0.40799999237060547,black.png,0.10815586693952882,0.13966778095576537,0.13687966905589927,0.13711042846565585,0.13751521855774146,0.13600828629830913,0.13858331901828277,0.13772203924918644,0.13774843665938816,0.1384134681121669,0.13316898890364037,0.13929099759948224,0.13126828596213888,0.13792262380392836,0.13840195696377242,0.12870286449228102
0.4100000858306885,black.png,0.10813572801777459,0.13966453995281936,0.1368785067651876,0.13709451402360368,0.13752306402004527,0.1360075039872532,0.13858586711715068,0.13772557082481038,0.137738266615661,0.13839918534745996,0.13316308804310417,0.13927658072430857,0.13126926943889491,0.137925551882452,0.13839189867876753,0.12900385308311618
0.4100000858306885,black.png,0.10811757840127688,0.13965685095272673,0.1368682473144826,0.13711623991921423,0.13751398921179642,0.13599753510922613,0.13857422185828946,0.13771546783631658,0.13774179819128493,0.13840859543187564,0.1331455195719623,0.1392851637941794,0.13123390897916662,0.1379187569521376,0.1383945138328688,0.1289601330709616
0.41300010681152344,black.png,0.10818226434973054,0.13967023964765546,0.13688306652105647,0.13709538574163743,0.13751792311882055,0.13601112496985496,0.13858756584972928,0.13772496732771008,0.13774644735413163,0.13840864013536455,0.13318561860151512,0.13928659430582455,0.13130192533754412,0.13792742942898625,0.1384012640596943,0.128721125867501
0.5409998893737793,black.png,0.10810009933711283,0.1396548169439813,0.13686782263133795,0.1371100037825112,0.13751982301709925,0.13599793744062633,0.13857674760541291,0.13771902176368497,0.1377357185167931,0.13839925240269332,0.1331484252987415,0.13927624544814174,0.13124280497345983,0.1379198521876159,0.13838827769616577,0.12911999274730596
0.5409998893737793,black.png,0.10817649759966107,0.13966534461561975,0.13687671862563117,0.13710962380285546,0.13751191049956207,0.13600511235059648,0.13858077091941487,0.13771815004565122,0.13774774375531004,0.13841273050459987,0.13316608317686118,0.13929099759948224,0.13127110228194025,0.13792311554230638,0.13840135346667212,0.12872581973383662
0.5409998893737793,black.png,0.10815754332036297,0.13966348942082996,0.13687723271575364,0.13709563161082644,0.13752136528746667,0.136006855786664,0.13858539773051712,0.13772619667365513,0.13773674669703803,0.1383968160625477,0.13316445149951595,0.13927512786091897,0.13127794191574357,0.1379242554812736,0.13839004348397774,0.1290323962607856
0.5409998893737793,black.png,0.10813378341600698,0.13965262647302468,0.13686451457315857,0.13711554701513612,0.13751041293268357,0.1359944505684913,0.138571204372788,0.13771213742639274,0.13773878070578346,0.1384044156556625,0.13314712889756308,0.1392819674947223,0.1312413744618147,0.13791553830093603,0.13839109401596714,0.12898778217885282
0.5409998893737793,black.png,0.10819920697202766,0.13966711040343172,0.1368804513669552,0.13709688330851594,0.13751528561297482,0.13600929212680962,0.13858568830319504,0.13772279920849792,0.1377454191738867,0.13840618144347447,0.13318546213930393,0.13928498498022376,0.1313140399830389,0.13792559658594092,0.13839967708583797,0.12879497603118134
0.5420000553131104,black.png,0.10811605848265392,0.1396506148160237,0.13686368755861372,0.13710942263715536,0.13751655966240878,0.13599483054814704,0.13857386423037818,0.13771622779562806,0.1377321645894247,0.13839502792299127,0.1331438208393837,0.13927253505856216,0.131252729147998,0.13791676764688107,0.1383842096786749,0.12917381574795433
0.5420000553131104,black.png,0.1081850806695319,0.13966060604579522,0.13687231533197347,0.13710868502958834,0.1375082895169603,0.13600236308602848,0.13857744050949103,0.13771663012702826,0.13774613442970926,0.13841074119934335,0.13316509970010515,0.13928907534945908,0.131276734921543,0.1379213050510055,0.13840019117596045,0.1288190041564708
0.5420000553131104,black.png,0.1081654781896446,0.139661723633018,0.13687593631457523,0.13709657038409356,0.13752031475547727,0.13600616288258588,0.1385850624543503,0.1377237603335095,0.13773623260691556,0.13839612315846958,0.13316284217391516,0.1392746137707965,0.13127271160754103,0.13792309319056192,0.1383892611729218,0.12910034556392974
0.5420000553131104,black.png,0.1081450710469569,0.13965110655440172,0.13686303935802452,0.13711527879420266,0.1375090494762718,0.13599342238824635,0.13857241136698858,0.13771032693509186,0.13773694786273813,0.1384023592951726,0.13314265854867202,0.1392798217272546,0.13122420832207302,0.13791381721661297,0.13838948469036635,0.129067712017025
0.5420000553131104,black.png,0.10820942171924373,0.13966523285689747,0.13687801502680957,0.13709513987244842,0.13751237988619563,0.13600797337388676,0.13858691764914008,0.1377226650980312,0.13774494978725313,0.13840629320219675,0.13317513563336558,0.1392839120964899,0.131276734921543,0.13792539542024082,0.13839972178932688,0.12886209831978063
0.5420000553131104,black.png,0.10812437333159129,0.13965217943813557,0.1368644475179252,0.13711069668658932,0.13751676082810887,0.13599668574293683,0.1385781110618247,0.13771815004565122,0.1377342656534035,0.13839735250441462,0.13312468774612995,0.139272870334729,0.1312077574381539,0.13791759466142592,0.13838644485312043,0.1292105396640944
0.5420000553131104,black.png,0.10816237129716531,0.13966145541208452,0.13687171183487318,0.1371089532505218,0.13750813305474913,0.13600307834185105,0.13858144147174853,0.13771584781597232,0.13774834725241034,0.1384130657807667,0.13313427664450128,0.13928836009363652,0.13123585358093423,0.1379211038853054,0.1384023592951726,0.12885154829639772
0.5420000553131104,black.png,0.10811456091577541,0.1396626177027962,0.13687441639595227,0.13709543044512634,0.1375200465345438,0.13600678873143063,0.13858863873346314,0.1377234027055982,0.13773692551099367,0.13839648078638087,0.13312929220548775,0.13927143982308385,0.13124119564785905,0.13792139445798332,0.13839002113223328,0.12911208022976878
0.5420000553131104,black.png,0.10807557947344536,0.13964864786251163,0.13685812197424435,0.1371117025150898,0.13750627785995934,0.13599136602775647,0.13857147259372146,0.13770742120831267,0.13773804309821644,0.13840238164691707,0.1331053087836872,0.1392766701312864,0.13119734152523774,0.13791064326890032,0.13839037876014457,0.12907227177289388
0.5429999828338623,black.png,0.10813226349738402,0.1396643611388637,0.13687488578258583,0.13709297175323626,0.1375113964094396,0.13600672167619726,0.13858642591076206,0.13771714421715073,0.1377461120779648,0.13840568970509645,0.1331396187114261,0.13928125223889973,0.1312616698457801,0.1379217520858946,0.138400168824216,0.12886194185756944
0.5429999828338623,black.png,0.10804064369686171,0.13964909489740074,0.13686011127950087,0.13710687453828746,0.13751385510132969,0.13599362355394645,0.13857518298330104,0.13771251740604848,0.13773384097025884,0.13839487146078008,0.1331018666150411,0.13926942816608287,0.13119836970548268,0.13791278903636803,0.13838470141705292,0.1292140488879739
0.5429999828338623,black.png,0.10810197688364707,0.13965834851960524,0.13686806850052696,0.13710501934349767,0.13750478029308083,0.13599985969064948,0.1385777534339134,0.13771099748742552,0.13774774375531004,0.13841074119934335,0.1331253135949747,0.1392861696226799,0.13123267963322158,0.1379171029230479,0.13840068291433846,0.12888344423573544
0.5429999828338623,black.png,0.10807274080189953,0.13966188009522917,0.13687430463723,0.13709467048581486,0.13751877248510985,0.13600647580700825,0.13858707411135127,0.1377225533393089,0.13773994299649514,0.13839838068465957,0.13311874218210484,0.1392735632388071,0.13123549595302295,0.13792197560333916,0.13839165280957852,0.129134968416091
0.6180000305175781,black.png,0.10803168064733513,0.13965043600206806,0.136861050052768,0.13711384828255752,0.1375078424820712,0.13599331062952408,0.1385725007739664,0.13770987990020275,0.13773963007207277,0.1384033651236731,0.13310034669641813,0.13927769831153133,0.13120009078980574,0.13791097854506715,0.1383903564084001,0.129118472828683
0.6180000305175781,black.png,0.10808342493574917,0.13966243888884056,0.13687461756165237,0.13709192122124686,0.1375094965111609,0.13600546997850776,0.13858419073631653,0.13771788182471775,0.13774425688317501,0.13840390156554003,0.13313624359801335,0.13927924058189875,0.13126788363073869,0.13791933809749343,0.13839654784161423,0.12891891645418602
0.6180000305175781,black.png,0.10798612779213522,0.1396473067578443,0.13685968659635622,0.1371051087504755,0.13751202225828435,0.1359917013039233,0.1385724560704775,0.13771041634206968,0.13773258927256934,0.13839384328053514,0.13309303767598124,0.13926799765443773,0.13120058252818376,0.13791064326890032,0.1383816168763181,0.129257008940817
0.6180000305175781,black.png,0.10804421997597456,0.13965613569690416,0.13686726383772657,0.13710352177661916,0.13750348389190242,0.13599773627492623,0.13857498181760095,0.13770898583042454,0.13774530741516441,0.13840864013536455,0.1331133107082022,0.13928335330287853,0.13123118206634307,0.1379141971962687,0.1383961678619585,0.12895765202732706
0.6189999580383301,black.png,0.10802057183034085,0.13965850498181642,0.1368722482767401,0.1370918541660135,0.13751588911007512,0.1360033018592956,0.1385828049281603,0.13772002759218546,0.13773728313890496,0.13839594434451394,0.1331131095425021,0.1392704116428389,0.13123493715941156,0.13791848873120413,0.13838702599847627,0.12918599744868248
0.6189999580383301,black.png,0.10799015110613717,0.1396475973305222,0.13685950778240058,0.1371110543145006,0.13750502616226984,0.13599053901321162,0.13856816453554208,0.13770643773155664,0.13773777487728298,0.13840204637075024,0.13309118248119145,0.13927584311674154,0.1311900548565453,0.1379084975014326,0.13838637779788707,0.1292085950623268
0.6189999580383301,black.png,0.10805604404879142,0.13966353412431887,0.1368768974395868,0.13709281529102507,0.1375101447117501,0.1360062969930526,0.13858309550083822,0.13771774771425102,0.13774749788612103,0.1384075672516307,0.1331354165834685,0.1392825709918226,0.13126120045914655,0.13792152856845005,0.13839809011198165,0.1289936383359001
0.6189999580383301,black.png,0.10797785764668676,0.13965032424334578,0.13686386637256936,0.13710783566329904,0.13751448095017443,0.1359942941062801,0.13857408774782273,0.13771359028978233,0.13773565146155972,0.13839699487650334,0.13309864796383952,0.13927083632598355,0.13120132013575078,0.1379130572573015,0.13838394145774144,0.12934583477328238
0.690000057220459,black.png,0.10804535991494178,0.13966018136265057,0.13687173418661763,0.13710756744236557,0.13750645667391498,0.1360005972982165,0.138576948771113,0.13771106454265888,0.13774834725241034,0.1384113670481881,0.1331240618972852,0.13928605786395762,0.13123560771174522,0.1379156053561694,0.13839824657419283,0.12904498029291395
0.690000057220459,black.png,0.10802700913274398,0.13966087426672869,0.1368749975413081,0.13709368700905883,0.13751758784265372,0.13600437474302945,0.1385836542944496,0.1377201617026522,0.13773799839472753,0.13839654784161423,0.13312797345256489,0.13927132806436157,0.13124964460726316,0.13791886871085987,0.13838774125429884,0.12925417026927116
0.6909999847412109,black.png,0.1079959402079511,0.13964922900786747,0.13686140768067928,0.13711279775056812,0.137506702543104,0.13599120956554528,0.1385692597710204,0.13770737650482376,0.13773947360986158,0.13840387921379557,0.13309978790280674,0.1392775194975757,0.13120400234508542,0.13791037504796685,0.1383867577775428,0.12927649966198201
0.6909999847412109,black.png,0.10805801100230349,0.13966599281620895,0.1368793561314769,0.13709516222419288,0.1375126481071291,0.1360079063186534,0.13858537537877266,0.13771877589449597,0.13774910721172182,0.13840957890863168,0.13313997633933738,0.13928444853835684,0.13127838895063268,0.1379232049492842,0.13840003471374926,0.12908635337190072
0.6909999847412109,black.png,0.10796985572217176,0.13965240295558012,0.1368661462505038,0.13710969085808883,0.13751731962172026,0.13599648457723673,0.13857674760541291,0.137714506711305,0.13773598673772655,0.13839813481547056,0.13310508526624265,0.13927179745099513,0.13122130259529383,0.1379149571555802,0.1383850590449642,0.12942306005037546
0.6909999847412109,black.png,0.10803738034217124,0.13966009195567275,0.13687189064882882,0.13710752273887666,0.137506948412293,0.1360012454988057,0.13857737345425766,0.13771242799907066,0.13774814608671024,0.1384123728766886,0.13312178201935077,0.139286616657569,0.13124638125257268,0.13791708057130345,0.13839793364977046,0.1291513745965212
0.6909999847412109,black.png,0.1080218458797748,0.1396632211998965,0.13687721036400918,0.13709482694802605,0.13751991242407707,0.13600692284189736,0.1385859565241285,0.13772239687709772,0.1377395183133505,0.13839882771954867,0.1331175575396487,0.13927320561089582,0.13125380203173184,0.1379211485887943,0.13838952939385527,0.12938649259644658
0.6909999847412109,black.png,0.10799245333581607,0.1396515088858019,0.13686303935802452,0.13711358006162405,0.13750793188904903,0.13599333298126853,0.1385701538407986,0.13770907523740236,0.13774092647325117,0.13840649436789684,0.13308972961780186,0.13927979937551013,0.13120187892936216,0.1379126549259013,0.13838952939385527,0.12943267130049124
0.6909999847412109,black.png,0.10805944151394863,0.13967012788893318,0.13688282065186747,0.13709726328817168,0.13751488328157463,0.13601184022567753,0.13858747644275146,0.13772264274628673,0.1377511635722117,0.13841279755983324,0.13313324846425634,0.13928744367211385,0.13127979711053336,0.1379259542138522,0.13840175579807232,0.12924744239419012
0.7369999885559082,black.png,0.10797989165543219,0.13965622510388198,0.1368694990121721,0.13711078609356714,0.1375198006653548,0.13600023967030522,0.13857954157346983,0.1377193570398518,0.1377396077203283,0.13840260516436162,0.13309703863823874,0.13927608898593055,0.13122554942674033,0.13791913693179333,0.13838919411768844,0.1296396931576363
0.7369999885559082,black.png,0.10804953969115492,0.13966507639468628,0.13687647275644216,0.1371102049482113,0.1375113517059507,0.13600598406863024,0.13858119560255952,0.1377184629700736,0.13775187882803427,0.1384171114465131,0.13311708815301515,0.13929117641343788,0.13125854060155637,0.1379219085481058,0.13840177814981677,0.1293619727327791
0.7379999160766602,black.png,0.10803286528979127,0.13966947968834398,0.1368838041286235,0.13709907377947256,0.13752601445031337,0.13601349425476722,0.13859183503292025,0.13772914710392323,0.13774763199658777,0.13840823780396436,0.13312048561817236,0.13928248158484477,0.1312650226074484,0.13793109511507692,0.138398157167215,0.12961684967480297
0.7379999160766602,black.png,0.10799598491144001,0.13966125424638443,0.1368737011401297,0.13712223018672826,0.13751872778162094,0.1360032571558067,0.1385804579949925,0.1377193570398518,0.13774814608671024,0.13841413866450056,0.13309192008875848,0.1392874660238583,0.13121354653996783,0.13792088036786085,0.13839829127768175,0.12963862027390244
0.7379999160766602,black.png,0.10806677288612997,0.13967614050819166,0.13688914619554832,0.13710227007892967,0.13752201348805587,0.13601783049319155,0.13859424902132142,0.13772959413881233,0.1377574667641481,0.13842006187678121,0.13312198318505086,0.13929385862277252,0.13127885833726624,0.13793368791743374,0.13840727667895278,0.1294137393729376
0.7379999160766602,black.png,0.10798731243459135,0.13966293062721857,0.1368762492389976,0.1371165081401477,0.13752737790672515,0.13600721341457528,0.13858577771017286,0.13772767188878918,0.13774385455177482,0.13840808134175317,0.13308141476886448,0.13928084990749953,0.13121444060974605,0.1379254624754742,0.138394916164269,0.12985060421831657
0.7809998989105225,black.png,0.1080507019818666,0.1396715136970894,0.13688306652105647,0.13711684341631453,0.13751904070604332,0.13601253312975564,0.1385879011258961,0.13772559317655483,0.13775894197928215,0.1384250686675392,0.1331061581499765,0.1392984630821303,0.13124716356362862,0.13793055867321,0.1384094224464205,0.12950064295537983
0.7809998989105225,black.png,0.10803695565902659,0.1396773698541367,0.13689191781186077,0.13710613693072043,0.13753491044460658,0.13602151853102668,0.13860019458534653,0.13773860189182782,0.1377538681332908,0.13841478686508976,0.13310814745523303,0.13928885183201453,0.1312552772468659,0.1379377112314357,0.13840537678067408,0.12979179677865466
0.7820000648498535,black.png,0.10800385272548828,0.13966798212146547,0.1368810995675444,0.13712833221296455,0.1375269979270694,0.1360107002867103,0.13858792347764057,0.1377271577986667,0.13775652799088098,0.1384229676035604,0.1330847004752994,0.1392963173146626,0.13120983615038825,0.13793042456274326,0.13840718727197496,0.12979915050258045
0.9820001125335693,black.png,0.10807247258096607,0.13968599762749645,0.13690052323347607,0.13711228366044564,0.13753359169168372,0.13602869344099683,0.13860540254180462,0.13774043473487316,0.13776868733986466,0.13843081306586422,0.1331183174989602,0.13930525801244473,0.1312766231628207,0.13794499790012812,0.13841992776631448,0.1295464640315132
0.9820001125335693,black.png,0.10798972642299252,0.13967410649944623,0.13688887797461485,0.1371266558321304,0.13754038662199813,0.13601941746704788,0.13859842879753456,0.13773947360986158,0.13775625976994751,0.13841965954538102,0.13307412810017205,0.13929285279427203,0.1312115125312224,0.13793797945236916,0.13840729903069723,0.1299880897984612
0.9820001125335693,black.png,0.10805224425223402,0.13968146022337202,0.13689468942817323,0.1371264546664303,0.13753048479920443,0.13602426779559468,0.13859963579173515,0.13773784193251634,0.13776993903755416,0.1384353281182442,0.13309406585622618,0.1393091695677244,0.13123925104609144,0.1379419133593933,0.1384204195046925,0.12960911597122143
0.9820001125335693,black.png,0.10803373700782502,0.13968724932518595,0.1369032054428107,0.1371154129046694,0.13754592985462305,0.13603291792069888,0.13861172808548547,0.13774895074951063,0.1377652228194741,0.13842544864719494,0.13309947497838437,0.1392996700763309,0.13124959990377424,0.13794928943506354,0.13841684322557965,0.1298893174397132
0.9820001125335693,black.png,0.10799913650740821,0.13967721339192551,0.1368914037217383,0.1371373176142356,0.13753739148824112,0.13602138442055994,0.13859851820451238,0.13773851248485,0.13776645216541913,0.13843244474320945,0.1330798501467526,0.13930595091652284,0.13120094015609504,0.13794095223438171,0.138416664411624,0.12988638936118954
0.9820001125335693,black.png,0.10807334429899983,0.13969665940960163,0.13691172145744818,0.13712223018672826,0.13754483461914474,0.13604029399636913,0.13861635489658772,0.13775225880769001,0.1377791703080142,0.13844136308924712,0.13311170138260142,0.1393158303875721,0.13126940354936165,0.1379562631793336,0.1384302766239973,0.12961816842772583
0.9830000400543213,black.png,0.10799518024863962,0.1396849694472515,0.1369002550125426,0.13713617767526837,0.13755158484597024,0.1360306603945089,0.13860989524244013,0.13775022479894458,0.1377665192206525,0.1384298742925971,0.13307238466410454,0.13930317930021038,0.13121144547598904,0.1379478589234184,0.13841744672267994,0.13005773783418392
0.9839999675750732,black.png,0.10805803335404794,0.1396929713717665,0.13690617822482326,0.13713628943399064,0.13754204065108783,0.13603504133642214,0.13861047638779597,0.1377469614442541,0.1377810702062929,0.13844659339744966,0.13309238947539204,0.13932043484692988,0.13123601004314542,0.13795273160370966,0.1384315283216868,0.12966177668115814
0.9839999675750732,black.png,0.1080473492201983,0.13969909574974726,0.13691449307376063,0.137125359430952,0.13755757511348427,0.13604413849641545,0.13862234516410174,0.13776195946478362,0.13777494582831215,0.13843555163568874,0.13309066839106898,0.1393093707334245,0.13124555423802783,0.13795950418227962,0.1384264768274399,0.1299336185972236
0.9839999675750732,black.png,0.10801420158317108,0.139688478671131,0.136901551413721,0.1371470629748181,0.13754843325000204,0.1360315544642871,0.1386085094342839,0.13775002363324448,0.13777545991843462,0.13844158660669167,0.1330665955622906,0.1393148245590716,0.1311959557170815,0.13794980352518602,0.13842562746115059,0.12991839705924954
0.9839999675750732,black.png,0.1080839613776161,0.1397061812527396,0.13692052804476357,0.13713157321591057,0.13755433411053825,0.13604912293542898,0.13862498266994747,0.13776099833977204,0.13778766397090722,0.13844978969690677,0.13310763336511056,0.13932423464348728,0.1312660284359489,0.1379638627724484,0.1384387702868903,0.12964362706466043
0.9839999675750732,black.png,0.10800698196971202,0.13969505008400085,0.13691006742835848,0.1371472194370293,0.13756206781411978,0.13604007047892458,0.13861879123673335,0.13775945606940462,0.13777633163646838,0.13843973141190188,0.1330718035187487,0.1393129693642818,0.1312083609352542,0.13795780544970102,0.1384272144350069,0.13008026839259487
0.9839999675750732,black.png,0.10807003624082044,0.1397034766916605,0.13691657178599498,0.1371491640387969,0.1375526577297041,0.1360453678423605,0.1386201099896562,0.13775715383972573,0.1377900779593084,0.1384557799644208,0.13309046722536888,0.139329621413901,0.13123502656638938,0.1379615158392806,0.13844042431598,0.12968026157382267
0.9849998950958252,black.png,0.10805903918254843,0.1397108751190752,0.1369263618500664,0.13713868107064736,0.13756901920664538,0.13605602962446567,0.13863345398109603,0.1377722189154886,0.13778650168019554,0.13844708513582768,0.13308872378930137,0.13932144067543037,0.13124401196766042,0.13797112708939638,0.13843818914153447,0.1299487730799643
0.9849998950958252,black.png,0.10802110827220777,0.13970039215092567,0.1369139119284048,0.13716074224242475,0.13756068200596355,0.13604407144118208,0.1386207581902454,0.13776128891244996,0.13778659108717337,0.1384524719062414,0.13306686378322408,0.13932631335572163,0.13120098485958395,0.13796173935672515,0.13843709390605616,0.12994419097235096
0.9860000610351562,black.png,0.10809028692129695,0.13971726771798942,0.13693192743443577,0.137143866675361,0.13756566644497709,0.13606052232510119,0.1386364714665975,0.13777230832246642,0.137797521090212,0.1384590209673668,0.13310828156569976,0.1393341811697699,0.13127396330523053,0.13797418927838676,0.13844889562712856,0.12966012265206844
0.9860000610351562,black.png,0.10801167583604764,0.13970595773529504,0.13692104213488604,0.1371580600330901,0.13757299781715843,0.13605133575813005,0.13863050355082793,0.1377711236800103,0.1377875298604405,0.1384504826009849,0.13307446337633888,0.13932454756790966,0.13121824040630345,0.13797025537136262,0.13843881499037922,0.13009908856142624
0.9860000610351562,black.png,0.10807466305192269,0.13971360203189875,0.13692712180937788,0.13715964700694644,0.137563453622276,0.13605643195586586,0.13863110704792822,0.13776884380207585,0.13779984567163536,0.13846559238023667,0.1330981562254615,0.13934005967856164,0.1312495775520298,0.13797300463593062,0.13845079552540726,0.12970402147817867
0.9869999885559082,black.png,0.10806442595296216,0.1397209334040801,0.13693718009438277,0.13714898522484126,0.13757934571258373,0.13606698197924877,0.1386441157632012,0.1377823666074713,0.13779673877915607,0.1384578810283996,0.13309909499872863,0.13933263889940248,0.13125728890386687,0.13798266058953532,0.13844905208933975,0.1299752822488883
0.9869999885559082,black.png,0.10803507811249234,0.1397117244853645,0.13692598187041066,0.13717267807396388,0.13757234961656922,0.13605602962446567,0.1386320681729398,0.13777244243293316,0.13779758814544538,0.13846405010986926,0.13308143712060894,0.1393380256698162,0.13121052905446637,0.13797407751966448,0.138448672109684,0.12997939496986807
0.9869999885559082,black.png,0.1081111634506182,0.13972915884603965,0.13694404207993055,0.13715569074817785,0.1375773117038383,0.1360725699153626,0.1386481167254587,0.13778408769179437,0.137808026410106,0.13847026389482783,0.13312120087399493,0.13934540174548646,0.1312804229593781,0.1379862145169037,0.13845964681621156,0.1296938067309626
0.9909999370574951,black.png,0.10803127831593494,0.13971433963946578,0.13692944639080123,0.13716630782679412,0.13758120090737352,0.13605998588323426,0.13863819255092055,0.13778035495047034,0.13779459301168837,0.13845725517955484,0.13308434284738813,0.13933138720171298,0.13122414126683965,0.13797778790924406,0.138445922845116,0.1301395228671459
0.9930000305175781,black.png,0.10809267855795367,0.13972298976456998,0.13693615191413783,0.13717019703032934,0.13757322133460298,0.1360652161914368,0.13864004774571034,0.13777782920334689,0.13780994866012916,0.1384752259820969,0.1331057111150874,0.13934991679786643,0.13125219270613106,0.13798290645872432,0.13846109967960116,0.12973821964719529
0.9930000305175781,black.png,0.10808425195029402,0.13973014232279568,0.13694562905378688,0.13715875293716823,0.13758857698304378,0.13607565445609743,0.13865348114412798,0.13779148611920908,0.13780286315713683,0.13846373718544688,0.13310749925464382,0.13933849505644977,0.13126779422376086,0.13798950022333864,0.13845551174348733,0.1300012326242009
0.9930000305175781,black.png,0.10804491288005268,0.1397173794767117,0.13693087690244637,0.137179115376367,0.13757813871838315,0.13606197518849078,0.1386379243299871,0.13777881268010292,0.13780308667458138,0.138469436880283,0.13308264411480952,0.13934336773674103,0.1312157593626689,0.13798024660113414,0.1384543271010312,0.13000324428120189
0.9930000305175781,black.png,0.10811929948559994,0.13973521616878704,0.1369497641265111,0.13716244097500335,0.13758350313705242,0.13607882840381008,0.1386537717168059,0.1377904802907086,0.13781482134042042,0.1384772376390979,0.13312509007753015,0.13935246489673433,0.13128560856409174,0.13799321061291822,0.13846666526397053,0.12970862593753646
0.9939999580383301,black.png,0.10804497993528604,0.13972366031690364,0.13693887882696137,0.137175874373421,0.1375905662883003,0.13606928420892767,0.13864724500742495,0.13778978738663047,0.13780424896529306,0.1384673358163042,0.13309017665269096,0.13934175841114024,0.13122758343548577,0.1379881144151824,0.13845575761267634,0.13015414090801966
0.9939999580383301,black.png,0.10810879416570594,0.13973181870362983,0.1369453161293645,0.13717900361764473,0.13758178205272936,0.1360740674822411,0.13864820613243653,0.13778706047380693,0.13781698945963258,0.13848246794730043,0.13310957796687817,0.13935731522528114,0.13125105276716384,0.13799008136869448,0.1384677828511933,0.12975259181888005
1.1730000972747803,black.png,0.10810137338654678,0.1397380324885884,0.13695363097830188,0.1371655702192271,0.13759590835522512,0.13608280701432313,0.13866045488839804,0.1377994209884907,0.13781115565432975,0.13847151559251733,0.13311103083026776,0.1393466310914315,0.1312647767382594,0.1379972786304091,0.13846315604009105,0.130009681583605
1.1730000972747803,black.png,0.1080591062377818,0.13972681191287184,0.13694035404209542,0.13718785490844904,0.137587213526632,0.13607053590661716,0.13864670856555802,0.13778795454358514,0.13781204972410796,0.13847822111585392,0.13308438755087704,0.13935250960022325,0.1312133677260122,0.1379892767058941,0.1384627760604353,0.13001611888600814
1.1730000972747803,black.png,0.10813624210789706,0.13974290516887966,0.13695718490567027,0.13717044289951835,0.13759018630864456,0.13608620447948033,0.13866101368200942,0.1377977222559121,0.1378229350236577,0.1384855301362908,0.1331242630629853,0.13936102561486072,0.13128335103790176,0.13800150311011114,0.13847471189197444,0.12971658315856255
1.1730000972747803,black.png,0.10805573112436904,0.13973385271237526,0.13694873594626616,0.13718635734157053,0.13760024459364945,0.13607958836312156,0.13865699036800747,0.13780020329954665,0.13781245205550816,0.13847580712745275,0.13309004254222423,0.1393504755914778,0.1312287680779419,0.13799750214785364,0.13846431833080272,0.13017039062623867
1.1740000247955322,black.png,0.1081142703430975,0.13974042412524512,0.13695329570213505,0.13718859251601606,0.1375905215848114,0.13608300818002322,0.13865719153370756,0.13779600117158905,0.13782534901205887,0.13849107336891572,0.1331061581499765,0.13936612181259653,0.131253220886376,0.13799978202578808,0.1384768353076977,0.1297679698190653
1.1740000247955322,black.png,0.10810973293897307,0.13974607911659231,0.13696129762665005,0.13717460032398704,0.13760449142509595,0.13609163595338297,0.13866903795826888,0.13780791465138373,0.13781971637245613,0.13848000925541035,0.13311000265002282,0.13935537062351352,0.13127414211918617,0.1380065769561025,0.1384722308483399,0.13001920342674297
1.1740000247955322,black.png,0.1080732101885331,0.13973472443040902,0.13694790893172132,0.13719690736495344,0.13759657890755878,0.13607889545904345,0.13865585042904024,0.13779680583438944,0.13782130334631246,0.13848700535142486,0.13308774031254533,0.13936140559451646,0.13122074380168244,0.13799875384554314,0.13847236495880663,0.13003201097631586
1.1740000247955322,black.png,0.10814925082317005,0.1397535893027293,0.13696755611509753,0.1371822669723352,0.13760214449192815,0.13609684390984106,0.1386722789612149,0.13780845109325066,0.13783252392202902,0.13849444848232847,0.13312815226652053,0.13937016747834294,0.13128388747976869,0.13801091319452682,0.13848441254906804,0.12972556855983358
1.1740000247955322,black.png,0.10807631708101238,0.13974096056711205,0.1369556649870473,0.13719366636200742,0.1376080230007199,0.13608633858994706,0.13866454525763336,0.13780597004961612,0.13781924698582257,0.13848199856066687,0.13309279180679223,0.13935691289388094,0.1312279634151415,0.1380040735607235,0.1384709791506504,0.1301746821611741
1.1749999523162842,black.png,0.10814279116902246,0.13974717435207062,0.13696004592896055,0.13719605799866413,0.13759704829419234,0.1360894678341708,0.13866374059483297,0.13780304197109247,0.13783281449470694,0.13849802476144132,0.13310834862093313,0.1393735425917557,0.13125344440382056,0.13800691223226932,0.13848430079034577,0.12977434006623506
1.1749999523162842,black.png,0.10813849963408705,0.13975434926204078,0.13696970188256524,0.13718342926304689,0.1376122251286775,0.13609963787789797,0.13867715164150615,0.1378163859625323,0.13782791946267123,0.1384880782351587,0.13311923392048286,0.13936377487942872,0.1312773831221322,0.13801495886027323,0.1384808362699552,0.1300257971913573
1.1749999523162842,black.png,0.10809808768011185,0.13974207815433481,0.13695550852483612,0.137205378676102,0.13760355265182883,0.13608662916262498,0.1386628241733103,0.1378050759798379,0.137826779523704,0.13849274974974987,0.13309207655096966,0.13936735115854157,0.1312244094877731,0.13800498998224617,0.1384782881710873,0.13004557848520024
1.1749999523162842,black.png,0.10817160256762536,0.13975861844523174,0.13697256290585552,0.1371882795915937,0.13760688306175267,0.13610238714246597,0.13867710693801724,0.13781470958169814,0.1378381342098873,0.1385008410812427,0.13312810756303162,0.1393767388912128,0.13128721788969253,0.1380173281451855,0.1384903357613487,0.12973164823432543
1.1749999523162842,black.png,0.10809712655510027,0.1397491860090716,0.13696377867028459,0.1372019812109448,0.13761589081476816,0.13609514517726246,0.13867283775482628,0.13781470958169814,0.13783026639583904,0.13849330854336125,0.13309131659165818,0.1393680887661086,0.1312323220053103,0.1380150706189955,0.13848211031938915,0.1301796218966987
1.1749999523162842,black.png,0.1081562245674401,0.13975955721849886,0.13697189235352186,0.13720815029241445,0.13760954291934285,0.1361022753837437,0.13867641403393913,0.13781571541019863,0.1378444374018237,0.13850946885460244,0.1331139142053025,0.13938489727793898,0.13125760182828924,0.1380184233806638,0.13849561077304015,0.12978819814779735
1.1760001182556152,black.png,0.1081511730731932,0.1397656368929907,0.1369800283885036,0.13719346519630732,0.13762340100090514,0.1361102773082587,0.13868796988582252,0.13782631013707045,0.1378393859075768,0.1384985388515638,0.13311968095537197,0.13937452606851172,0.13127897009598852,0.1380258218080785,0.13849176627299384,0.13003167570014904
1.1760001182556152,black.png,0.10810494966565963,0.13975517627658562,0.13696751141160862,0.1372171356936855,0.13761694134675756,0.13609881086335313,0.13867549761241646,0.13781685534916585,0.13784070466049966,0.13850611609293415,0.13309192008875848,0.13938096337091485,0.1312271140488522,0.13801936215393093,0.1384920344939273,0.13006247640400845
1.1760001182556152,black.png,0.10818090089331876,0.13977202949190493,0.13698550456589514,0.1372009306789554,0.13762096466075951,0.13611566407867243,0.13869096501957953,0.13782809827662687,0.13785120998039366,0.13851291102324856,0.1331313709177221,0.13938909940589658,0.13129544333165208,0.1380303815639474,0.13850336682836614,0.12974997666477878
1.1770000457763672,black.png,0.10810649193602705,0.139760495991766,0.1369745745628565,0.13721295591747235,0.1376281172189852,0.13610636575297902,0.1386845277171764,0.13782635484055936,0.1378406823087552,0.13850287508998813,0.13309824563243933,0.1393781917546024,0.13124298378741547,0.13802595591854525,0.13849297326719442,0.13020525934758895
1.1770000457763672,black.png,0.10816145487564265,0.13976936963431474,0.13698121303095973,0.13721894618498637,0.13762015999795912,0.13611206544781512,0.13868633820847728,0.13782525960508105,0.137853534561817,0.1385182977936623,0.13312173731586185,0.13939412854839903,0.13126920238366155,0.13802772170635721,0.13850522202315593,0.1298109745753973
1.1770000457763672,black.png,0.10815582223603991,0.13977426466635046,0.13698903614151908,0.13720356818480112,0.13763240875392063,0.13611950857871874,0.13869767054291612,0.13783572022148613,0.1378507405937601,0.13850982648251373,0.13313519306602395,0.13938605956865066,0.13129660562236375,0.13803706473553953,0.13850372445627743,0.13005161345620317
1.1770000457763672,black.png,0.10810805655813892,0.13976570394822407,0.136978575525114,0.13722996559500283,0.13762773723932947,0.1361099196803474,0.13868725462999995,0.1378286347184938,0.1378519922914496,0.1385160402674723,0.13311132140294568,0.1393916475047645,0.13124419078161606,0.13802971101161374,0.13850365740104406,0.13008131892458427
1.1770000457763672,black.png,0.1081827337363641,0.1397836971025106,0.13699746274917873,0.13721541460936243,0.13763249816089845,0.1361269293578779,0.1387029902580965,0.13783902827966552,0.13786500100672258,0.1385258973867771,0.13314893938886396,0.13940262221129204,0.13130905554402536,0.1380430326513091,0.13851760488958417,0.12974843439441136
1.1770000457763672,black.png,0.10810582138369339,0.13977276709947195,0.1369871809467293,0.13722779747579067,0.1376401201057577,0.13611839099149597,0.13869699999058246,0.13783907298315443,0.13785210405017187,0.1385140956657047,0.13311033792618965,0.13938961349601905,0.13125035986308572,0.13803724354949518,0.13850452911907782,0.13020186188243174
1.1779999732971191,black.png,0.10815935381166385,0.13977947262280854,0.1369916289438759,0.13723260310084856,0.13763035239343074,0.1361220343258422,0.13869735761849375,0.13783706132615345,0.13786591742824525,0.13853130650893528,0.13312247492342888,0.13940718196716093,0.13126866594179462,0.13804061866290793,0.13851811897970664,0.12981191334866443
1.2379999160766602,black.png,0.10815664925058475,0.13978892741071314,0.1370034306649483,0.13722015317918695,0.1376463338907163,0.13613417132308142,0.13871152862447841,0.1378503382623599,0.13786225174215458,0.13852232110766424,0.13312835343222063,0.13939846478682336,0.131287731979815,0.13804922408452322,0.13851561558432765,0.13003315091528309
1.2379999160766602,black.png,0.10811449386054205,0.13977522579136203,0.13698778444382959,0.1372409850050193,0.1376371249720007,0.13612006737233012,0.13869615062429316,0.13783800009942057,0.13786135767237637,0.13852712673272213,0.1331004137516515,0.13940221987989185,0.1312357194704675,0.13804032809023,0.13851344746511549,0.13007941902630557
1.2379999160766602,black.png,0.10819160737891285,0.13979415771891568,0.13700761044116144,0.13722770806881285,0.13764293642555908,0.1361384852097613,0.13871347322624603,0.13785065118678227,0.13787378524229352,0.138536201540971,0.13313948460095937,0.13941263579280802,0.13129989132879868,0.13805331445375854,0.13852661264259966,0.129745863943799
1.2390000820159912,black.png,0.108113264514597,0.1397813501693428,0.13699569696136676,0.13723716285671744,0.13764899374830647,0.1361283822212675,0.1387058289296423,0.1378488406954814,0.13786077652702053,0.13852361750884265,0.13310454882437572,0.13939913533915702,0.1312414638687925,0.1380476371106669,0.13851331335464875,0.13020291241442114
1.2390000820159912,black.png,0.10817739166943928,0.13978785452697928,0.13699985438583545,0.13724170026084187,0.13763868959411257,0.13613119854106887,0.13870466663893063,0.13784450445705707,0.13787445579462718,0.13853995663403948,0.13311950214141632,0.13941612266494305,0.1312588758777232,0.13804987228511242,0.13852647853213293,0.12981949059003478
1.2390000820159912,black.png,0.10817596115779414,0.13979701874220596,0.13701170081039676,0.13722869154556888,0.13765473814663148,0.13614215089585197,0.13871921762457104,0.1378585860560639,0.13787168417831472,0.1385310382880018,0.13313608713580216,0.13940805368519468,0.13129354343337338,0.13805926001778365,0.13852527153793234,0.13003835887174117
1.2390000820159912,black.png,0.10812859781129334,0.13978566405602266,0.13699835681895695,0.1372521385255025,0.13764841260295063,0.13612954451197917,0.1387067900546539,0.13784832660535892,0.1378715947713369,0.13853593332003752,0.1331103155744452,0.13941205464745218,0.13125009164215226,0.13805036402349044,0.1385240868954762,0.1300945511573018
1.2400000095367432,black.png,0.10820743241398721,0.139801243221908,0.13701440537147586,0.13723544177239438,0.13765067012914062,0.13614456488425314,0.13872084930191628,0.13785722259965213,0.13788198833250861,0.13854317528524104,0.13315296270286592,0.13942028008941174,0.13132275716337646,0.13806095875036226,0.1385351510089816,0.12976408061553008
1.3870000839233398,black.png,0.10813841022710922,0.13979111788166976,0.13700501763880463,0.1372470423277667,0.13765916379203363,0.13613756878823863,0.13871622249081403,0.13785831783513045,0.137871795937037,0.13853318405546952,0.1331162164349814,0.13940923832765081,0.13126106634867982,0.13805765069218287,0.13852433276466522,0.13022361012978675
1.3870000839233398,black.png,0.10819659181792639,0.13979751048058398,0.13700919741501777,0.13725184795282458,0.137648479658184,0.13614065332897346,0.138714993144869,0.13785507683218443,0.13788353060287603,0.13854833853821022,0.1331326673189005,0.13942481749353616,0.13127499148547547,0.13805885768638346,0.13853528511944832,0.12984602211070323
1.3870000839233398,black.png,0.10820723124828711,0.1398062053091771,0.1370202391767787,0.1372370287462507,0.13766285182986876,0.13615156098026765,0.13872831478456435,0.13786752675384603,0.1378808930970303,0.1385404483724175,0.13314035631899312,0.1394171955486769,0.1312928281775508,0.13806840188126587,0.1385341451804811,0.1300614482237635
1.3870000839233398,black.png,0.10816690870128974,0.13979371068402657,0.137005576432416,0.1372590452145392,0.13765520753326504,0.13613770289870536,0.13871380850241286,0.13785597090196264,0.1378791943644517,0.13854391289280807,0.1331082145104664,0.13941985540626708,0.13124215677287063,0.13805791891311633,0.13853110534323518,0.13011835576514671
1.3870000839233398,black.png,0.10823975303646959,0.1398114579691241,0.13702381545589154,0.13724386838005403,0.1376591861437781,0.1361544890587913,0.13872965588923167,0.13786540333812278,0.13789077256807955,0.13855247361093445,0.13314918525805297,0.1394296454703385,0.13130901084053645,0.13806972063418874,0.13854393524455252,0.12978008446456007
1.3880000114440918,black.png,0.10815955497736394,0.1398001032829408,0.13701326543250864,0.13725417253424793,0.1376670763095708,0.1361462412650873,0.1387235315112509,0.13786683384976792,0.13787988726852982,0.1385419906427849,0.13311483062682516,0.13941808961845512,0.13125731125561133,0.13806674785217618,0.13853300524151388,0.13024325731316297
1.3880000114440918,black.png,0.10820991345762175,0.13980712173069976,0.1370182275197777,0.13726172742387382,0.1376582250187665,0.13614986224768905,0.1387241350083512,0.13786406223345546,0.13789323125996963,0.1385583074162373,0.1331301639235215,0.13943503224075224,0.13127622083142051,0.13806900537836617,0.13854576808759786,0.1298650434452347
1.3880000114440918,black.png,0.10821266272218975,0.13981688944302673,0.13703065508969486,0.13724840578417846,0.13767364772244067,0.136161887486206,0.1387390436219029,0.1378774509283842,0.1378911972512242,0.13855032784346674,0.13313809879280314,0.13942758910984862,0.13129562214560772,0.1380783931110374,0.1385446505003751,0.13007237822680215
1.3880000114440918,black.png,0.10816344418089917,0.1398045512800874,0.13701579117963208,0.13727091399084496,0.1376653775769922,0.13614787294243252,0.13872431382230685,0.13786640916662327,0.1378892526494566,0.13855352414292385,0.13310457117612018,0.13942986898778306,0.13124184384844825,0.1380681336603324,0.13854136479394016,0.13013655008513333
1.3880000114440918,black.png,0.10823986479519186,0.13982162801285125,0.13703327024379613,0.13725607243252663,0.13766846211772704,0.1361648379164741,0.13873966947074765,0.1378779426667622,0.1379013449432069,0.13856257659942825,0.13314368672891697,0.13943997197627686,0.1313135929481498,0.13808067298897184,0.13855412764002414,0.12979264614494396
1.3880000114440918,black.png,0.1081641817884662,0.1398100498092234,0.1370226308134354,0.13726550486868677,0.13767615111781967,0.13615587486694752,0.13873448386603401,0.13787722741093963,0.13788847033840065,0.13854983610508873,0.13310687340579908,0.13942631506041467,0.13125994876145705,0.13807477212843564,0.1385410518695178,0.13025166156907816
1.3880000114440918,black.png,0.10820700773084256,0.13981543657963713,0.13702596122335925,0.13727147278445634,0.13766607048107032,0.1361583335588376,0.13873285218868878,0.13787260059983739,0.137901300239718,0.13856637639598565,0.1331207091356169,0.13944298946177833,0.1312705211365844,0.1380768955441589,0.13855363590164613,0.12987197248601584
1.3880000114440918,black.png,0.10820922055354364,0.1398245560913749,0.13703756177873155,0.13725685474358257,0.1376808896876442,0.13616995646595437,0.13874673262199552,0.13788670455058868,0.1378991544722503,0.1385594026517156,0.13313523776951286,0.13943603806925273,0.1312985278723869,0.13808778084370862,0.13855323357024593,0.130075954505915
1.3889999389648438,black.png,0.10816623814895608,0.13981402841973645,0.13702515656055886,0.1372811957932944,0.13767556997246383,0.13615851237279325,0.1387348414939453,0.1378776967975732,0.13789890860306128,0.1385649458843405,0.13310620285346542,0.13944057547337715,0.13123589828442314,0.13807998008489372,0.13855191481732307,0.1301507657946069
1.3889999389648438,black.png,0.1082433963708158,0.13983117220773367,0.13704270267995627,0.1372659966070648,0.13767827453354292,0.13617427035263424,0.13874986186621927,0.13788681630931096,0.13790977155086656,0.13857203138733284,0.13314648069697388,0.13944911383975908,0.1313004277706656,0.13808930076233158,0.13856318009652854,0.1297980776188466
1.3889999389648438,black.png,0.10816688634954529,0.13982089040528423,0.13703322554030722,0.13727623370602532,0.13768672349294703,0.1361665366490527,0.13874706789816235,0.13788627986744403,0.13789890860306128,0.13856101197731638,0.133112416638424,0.13943682038030866,0.13123607709837878,0.13808447278552924,0.13855195952081198,0.13025217565920064
1.3889999389648438,black.png,0.10819900580632756,0.139825003126264,0.13703490192114137,0.13728148636597232,0.13767545821374155,0.1361675871810421,0.13874516799988365,0.13787883673654042,0.13791071032413368,0.13857596529435698,0.13312059737689463,0.13945128195897125,0.13124034628156975,0.13808483041344052,0.13856373889013993,0.12986975966331477
1.3889999389648438,black.png,0.10818950631493406,0.13983557550139136,0.13704773182245872,0.1372685894094216,0.13769157382149383,0.13618117704167093,0.13876132831112484,0.1378964499111712,0.1379110456003005,0.13857113731755463,0.13312500067055233,0.13944571637460187,0.1312601722789016,0.13809745914905777,0.1385653482157407,0.13004826069453487
1.3900001049041748,black.png,0.10813434220961836,0.1398241537599747,0.1370333372990295,0.13729172346493285,0.13768511416734625,0.13616832478860913,0.13874791726445165,0.13788567637034374,0.13790912335027736,0.13857444537573402,0.1330800513124527,0.13944712453450256,0.13119494988858102,0.13808673031171922,0.1385619954540724,0.13011553944534535
1.7969999313354492,black.png,0.10819411077429185,0.13984158812064984,0.13705070460447127,0.13727726188627026,0.13768835517029226,0.13618473096903932,0.13876262471230325,0.13789508645475942,0.13792483662662944,0.1385868505939067,0.13311429418495824,0.1394603567672201,0.13125963583703468,0.13810072250374825,0.1385782004688025,0.12974698153102177
1.7980000972747803,black.png,0.1081023121598139,0.13983398852753504,0.13704411083985696,0.13728948829048732,0.1376995533942644,0.13617976888177025,0.13876103773844692,0.13789803688502753,0.13791471128639118,0.13857594294261252,0.1330828005770207,0.13944853269440324,0.13121410533357922,0.13809725798335767,0.13856807512856426,0.13019479873118386
1.7980000972747803,black.png,0.10813648797708607,0.13983848122817055,0.13704650247651368,0.13729436097077857,0.13768857868773682,0.13618066295154846,0.1387588919709792,0.13789242659716924,0.13792608832431894,0.1385903598177862,0.1330947587603043,0.13946319543876592,0.13122559413022925,0.13809681094846857,0.13857853574496934,0.12982590554069345
1.7980000972747803,black.png,0.10813436456136281,0.1398471537050192,0.1370579912731637,0.13727831241825966,0.13770214619662122,0.1361921517481985,0.13877207950020784,0.13790539060895332,0.13792289202486183,0.13858226848629338,0.1331052640801983,0.13945539467995102,0.1312485270200404,0.13810622103288425,0.13857634527401272,0.12999381184504175
1.7980000972747803,black.png,0.10807495362460061,0.13983497200429107,0.1370438426189235,0.13730137941853754,0.137695507728518,0.1361795453643257,0.13875826612213446,0.13789595817279318,0.13792121564402768,0.1385864035590176,0.13306306398666667,0.13945816629626348,0.13118236585645268,0.13809721327986876,0.13857323838153343,0.13007892728792755
1.7980000972747803,black.png,0.10813275523576203,0.1398526075306663,0.13706176871797665,0.1372872978195307,0.1376985475657639,0.13619588448952252,0.13877252653509695,0.13790606116128698,0.13793596779536818,0.13859804881787882,0.13309549636787132,0.139471152659792,0.13124908581365177,0.1381102443468862,0.13858837051252967,0.12971582319925107
1.7980000972747803,black.png,0.10804625398472,0.13984471736487358,0.13705495143591778,0.13729851839524726,0.13770943286531365,0.1361900506842197,0.13876995608448459,0.13790713404502083,0.13792438959174033,0.13858588946889513,0.13306943423383644,0.13945812159277457,0.1312056116706862,0.13810537166659495,0.13857656879145727,0.1301701224053052
1.7980000972747803,black.png,0.10808831996778488,0.13984938887946474,0.1370579465696748,0.13730513451160603,0.13769964280124222,0.13619172706505384,0.1387677432617835,0.1379027531031076,0.13793639247851283,0.13860084278593574,0.13308414168168803,0.13947327607551527,0.13122237547902768,0.13810552812880614,0.13858734233228473,0.12982226220634724
1.7980000972747803,black.png,0.10808818585731815,0.13985692141734618,0.1370678930959574,0.13728727546778624,0.13771108689440334,0.1362012489081918,0.1387797014450671,0.1379132584230016,0.1379324585714887,0.13859118683233104,0.1330932611934258,0.13946408950854414,0.1312506727875081,0.13811321712889876,0.13858403427410534,0.12998366415305904
1.7980000972747803,black.png,0.10803550279563699,0.1398448067718514,0.1370539903109062,0.13731072244771986,0.1377047613507225,0.13618806137896317,0.13876631275013837,0.13790308837927442,0.13793022339704317,0.1385940031521324,0.13305606789065216,0.13946603411031175,0.1311918653478462,0.1381034494165718,0.13858014507057012,0.13008089424143962
1.7980000972747803,black.png,0.10811073876747355,0.1398604082894812,0.13707073176750323,0.13729538915102352,0.13770639302806773,0.1362027911785592,0.13877941087238918,0.13791368310614624,0.13794419323732773,0.13860517902436006,0.13309522814693786,0.13947877460465127,0.13125583604047728,0.13811592168997786,0.1385946066492327,0.1297179019114854
1.7990000247955322,black.png,0.1080283949409002,0.13985473094638956,0.13706606025291207,0.13730871079071888,0.13771928998461844,0.13619946076863537,0.1387788967822667,0.13791743819921473,0.13793409024883393,0.13859489722191062,0.1330618569924661,0.13946759873242362,0.131207466865476,0.13811328418413213,0.13858423543980544,0.1301658308703698
1.7990000247955322,black.png,0.10807153380769895,0.1398582625220135,0.13706762487502394,0.1373151033896331,0.13770789059494623,0.1362002430796913,0.1387759463519986,0.13791155969042299,0.13794613783909535,0.13861072225698498,0.13307406104493869,0.13948340141575352,0.13122955038899783,0.13811473704752172,0.13859594775390002,0.12982534674708207
1.7990000247955322,black.png,0.10807446188622259,0.13986762790294027,0.13707973952051872,0.1372999042034035,0.13772208395267535,0.1362128494635641,0.1387908549655503,0.13792608832431894,0.13794249450474913,0.13860169215222504,0.1330855498415887,0.1394744607179714,0.13126298859870297,0.13812378950402612,0.1385937125794545,0.12997756212682274
1.7990000247955322,black.png,0.10801585561226078,0.1398534568969556,0.1370638921336999,0.13732167480250296,0.1377149090427052,0.13619807496047914,0.1387757004828096,0.13791363840265733,0.137939052336103,0.13860383791969275,0.13305841482381997,0.1394754665464719,0.1312081597695541,0.13811373121902124,0.1385893092857968,0.13009218187238955
1.7990000247955322,black.png,0.10809395260738762,0.13986943839424115,0.13708065594204139,0.13730640856103998,0.13771629485086143,0.13621343060891994,0.13878908917773833,0.1379221097138059,0.13795212810660937,0.13861438794307565,0.13309882677779517,0.13948722356405538,0.13127796426748803,0.1381260470302161,0.138603212070848,0.12973730322567262
1.7990000247955322,black.png,0.10801632499889434,0.13986074356564804,0.13707278812799312,0.13731626568034477,0.13772617432191067,0.1362071944722169,0.13878633991317033,0.13792501544058508,0.13794072871693716,0.13860298855340344,0.13306637204484606,0.13947479599413823,0.13122637644128518,0.13812258250982554,0.1385921032538537,0.1301880261526139
1.7990000247955322,black.png,0.10806091672908268,0.13986662207443978,0.1370764985175727,0.13732404408741522,0.13771687599621726,0.1362088037978177,0.13878513291896974,0.13791962867017135,0.13795299982464312,0.13861838890533315,0.1330764079781065,0.13949068808444595,0.13123274668845494,0.1381220460679586,0.13860370380922601,0.12983515916289795
1.7990000247955322,black.png,0.10806082732210485,0.1398766133042113,0.13708957428807905,0.13730812964536304,0.13773144933360212,0.13622120901599039,0.13880001918077697,0.13793406789708948,0.13795172577520917,0.13861183984420775,0.133093663524826,0.13948454135472074,0.13126580491850434,0.13813346780937527,0.13860377086445938,0.1299843794088816
1.7990000247955322,black.png,0.10800517147841114,0.13986304579532693,0.13707428569487162,0.13732947556131786,0.13772478851375444,0.1362069933065168,0.13878524467769202,0.1379245013504626,0.1379480153856296,0.1386131585971306,0.13305819130637542,0.13948467546518747,0.13120373412415196,0.13812260486157,0.13859851820451238,0.13009647340732497
1.7990000247955322,black.png,0.1080812121130481,0.139878021464112,0.13708926136365668,0.1373129576221654,0.13772519084515464,0.1362208066845902,0.13879677817783095,0.13793069278367673,0.1379598618101909,0.13862174166700145,0.13309002019047977,0.1394942643635588,0.13126956001157283,0.1381318584837745,0.13861043168430706,0.12972293105398786
1.7990000247955322,black.png,0.10800445622258857,0.1398708689058863,0.13708295817172028,0.13732341823857047,0.13773730549064941,0.13621597870778784,0.13879581705281938,0.13793333028952245,0.13795089876066433,0.1386122645273524,0.1330589512656869,0.139483915505876,0.13122499063312895,0.13813176907679667,0.13860140157954712,0.13017526330652993
1.7990000247955322,black.png,0.10804828799346543,0.13987513808907726,0.13708548391884373,0.13733124134912983,0.1377265095980775,0.1362177444955998,0.13879333600918484,0.13792993282436525,0.13796272283348118,0.13862777663800438,0.13307437396936106,0.13949985229967263,0.1312409721304145,0.1381329090157639,0.13861264450700814,0.12984150705832326
1.7990000247955322,black.png,0.10806038028721575,0.13988530813280442,0.13709876085505018,0.1373159527559224,0.1377408594180178,0.13623077556261726,0.1388084010849477,0.1379431650570828,0.13795823013284567,0.13861823244312196,0.13309151775735828,0.13949088925014605,0.13127876893028842,0.13814138032691245,0.13860978348371786,0.12998952031010633
1.7990000247955322,black.png,0.10801042413835814,0.13987109242333085,0.13708268995078682,0.13733772335502187,0.13773308101094736,0.13621586694906557,0.13879246429115108,0.13793089394937683,0.13795782780144547,0.13862337334434668,0.13305997944593184,0.13949484550891464,0.13121602758360237,0.13813369132681982,0.1386080623993948,0.13011558414883426
1.7999999523162842,black.png,0.10809379614517643,0.1398900243508845,0.13710189009927393,0.13732618985488293,0.13773647847610457,0.13623332366148516,0.13880779758784742,0.1379415110279931,0.1379689589701842,0.13863204582119534,0.13309712804521656,0.1395045685177527,0.13128250167161246,0.13814357079786907,0.13861932767860027,0.12974427696994267
1.7999999523162842,black.png,0.10802618211819913,0.13987909434784584,0.13709163064856894,0.13733258245379715,0.1377444580488751,0.13622458412940314,0.1388024108174337,0.13794244980126022,0.13795722430434518,0.13861975236174492,0.13306746728032437,0.13949144804375743,0.131239966301914,0.13814046390538978,0.13860812945462817,0.13019862087948572
1.7999999523162842,black.png,0.10806871748789758,0.13988318471708117,0.13709341878812537,0.13734042791610096,0.1377345115225925,0.13622534408871462,0.13879992977379915,0.13793704067910204,0.1379701212608959,0.1386360244317084,0.13308268881829843,0.13950803303814327,0.13125903233993438,0.13814187206529047,0.1386207581902454,0.1298648422795346
1.7999999523162842,black.png,0.10807611591531228,0.13989652870852098,0.137109355581922,0.13732788858746153,0.13775214704896774,0.1362408561993666,0.13881819114901914,0.13795478796419955,0.13797005420566252,0.13863010121942773,0.1331015536906187,0.13950278037819627,0.13129376695081793,0.13815331615845158,0.13862194283270154,0.12999412476946412
1.7999999523162842,black.png,0.10802191293500817,0.13988264827521424,0.1370941563956924,0.13734994975923892,0.13774573209830906,0.13622599228930382,0.13880317077674517,0.13794298624312715,0.1379676625690058,0.13863260461480673,0.13306605912042369,0.13950438970379705,0.13123171850821,0.13814348139089125,0.13861827714661087,0.1301142653959114
1.7999999523162842,black.png,0.10809730536905592,0.13990044026380066,0.1371120601430011,0.1373369633957104,0.13774843665938816,0.13624224200752283,0.13881810174204132,0.13795190458916481,0.13797854786855554,0.13864074064978846,0.13309987730978456,0.13951357627076819,0.13128876016005994,0.1381519527020398,0.13862920714964952,0.1297311117924585
1.7999999523162842,black.png,0.10802486336527627,0.13988890676366172,0.13710146541612928,0.13734248427659085,0.13775565627284722,0.13623336836497407,0.13881220088150512,0.13794964706297483,0.13796605324340502,0.13862732960311527,0.13306816018440248,0.13949929350606124,0.13124179914495934,0.13814708002174855,0.13861669017275455,0.13017331870476231
1.8010001182556152,black.png,0.10806543178146265,0.13989181249044091,0.1371020018579962,0.13735008386970565,0.13774430158666393,0.13623368128939645,0.138808758712859,0.13794459556872793,0.13797729617086604,0.13864223821666696,0.13307727969614025,0.13951417976786848,0.13125248327880898,0.1381479070362934,0.13862710608567072,0.12984492687522492
1.8010001182556152,black.png,0.10807276315364399,0.13990088729868977,0.13711382593081306,0.13733336476485308,0.137757265598448,0.1362458629901246,0.13882297442233257,0.1379583195398235,0.1379756644935208,0.13863508565844126,0.13309359646959262,0.13950769776197644,0.13128764257283718,0.13815830059746512,0.1386268155129928,0.12996066420801453
1.8010001182556152,black.png,0.10801230168489238,0.13988953261250647,0.13710101838124017,0.1373587563465543,0.13775353285712397,0.1362343518417301,0.13881119505300463,0.13794953530425255,0.13797302698767508,0.13863825960615392,0.13306284046922212,0.13950979882595524,0.13123308196462177,0.1381502092659723,0.13862359686179124,0.1301035589103173
1.8010001182556152,black.png,0.10809272326144258,0.13990531294409192,0.13711706693375908,0.1373450547272032,0.13775382342980189,0.13624932751051516,0.1388241143612998,0.13795919125785724,0.13798646038609272,0.1386491672574481,0.1331028053883082,0.13952193582319447,0.13129481748280733,0.13816147454517777,0.13863723142590897,0.12973439749889343
1.8010001182556152,black.png,0.10802452808910944,0.13989842860679969,0.13711179192206763,0.13735500125348582,0.137765267522963,0.13624452188545727,0.13882284031186584,0.1379612699700916,0.13797640210108783,0.13863843842010956,0.13307772673102936,0.1395104246748,0.1312514774503085,0.13815941818468788,0.1386274190100931,0.13018040420775465
1.8010001182556152,black.png,0.10807182438037687,0.13990111081613432,0.13711239541916792,0.13736277966055627,0.13775364461584624,0.13624391838835698,0.13881854877693042,0.1379562184758447,0.13798518633665877,0.13865084363828226,0.13308829910615672,0.13952298635518387,0.13126023933413497,0.13815729476896463,0.13863548798984146,0.12986222712543333
1.8010001182556152,black.png,0.10808038509850325,0.1399088668714603,0.1371230572012731,0.13734431711963618,0.13776515576424073,0.13625473663267335,0.1388316692509257,0.13796855663878402,0.13798478400525857,0.13864456279809032,0.13310658283312116,0.13951735371558113,0.13129483983455179,0.13816844828944783,0.13863649381834195,0.1299746340482991
1.8010001182556152,black.png,0.10802050477510748,0.13989840625505523,0.13711074139007823,0.1373694181286595,0.13776300999677302,0.1362434042982345,0.13882024750950903,0.1379598618101909,0.13798299586570215,0.13864751322835842,0.13307189292572652,0.13951903009641528,0.13123647942977898,0.13815919466724333,0.13863358809156276,0.13011457832033377
1.8010001182556152,black.png,0.10809663481672226,0.13991561709828582,0.13712768401237535,0.13735699055874234,0.13776517811598518,0.1362590058158643,0.13883415029456023,0.13796880250797303,0.1379952669734081,0.1386571691819631,0.13310036904816258,0.1395296248232871,0.13129530922118535,0.1381690070830592,0.13864579214403536,0.12973289993201492
1.8010001182556152,black.png,0.10801882839427333,0.1399050670749029,0.13711767043085937,0.1373620197012448,0.13777297887480008,0.13625124976053832,0.13882898704159105,0.13796862369401738,0.1379827723482576,0.1386443169289013,0.1330637568907448,0.13951590085219154,0.13124575540372793,0.13816538610045745,0.1386337669055184,0.13017195524835054
1.8010001182556152,black.png,0.10805434531621282,0.1399096715342607,0.1371201514744939,0.1373719662275274,0.13776330056945094,0.13625323906579484,0.13882697538459007,0.1379643098073375,0.13799528932515256,0.13866074546107596,0.13307251877457127,0.13953248584657738,0.1312513209880973,0.1381666601498914,0.13864534510914625,0.1298564380236194
1.8010001182556152,black.png,0.10807153380769895,0.13992051213032153,0.13713394250082284,0.1373555600470972,0.1377768233748464,0.13626615837409,0.13884264395745324,0.1379781231854109,0.13799325531640713,0.13865314586796115,0.13309744096963894,0.13952569091626296,0.1312961809392191,0.138176360806985,0.13864454044634586,0.12996741443484003
1.8010001182556152,black.png,0.10801936483614026,0.13990658699352587,0.13711903388727115,0.1373772188874744,0.1377703637206988,0.13625138387100505,0.13882807062006838,0.13796768492075026,0.1379899249064833,0.13865475519356193,0.13307068593152593,0.13952662968953009,0.13124211206938172,0.1381668166121026,0.13864058418757727,0.1301165676255903
1.8029999732971191,black.png,0.10810412265111478,0.13992408840943438,0.13713682587585757,0.13736499248325734,0.13777244243293316,0.1362669630368904,0.1388425098469865,0.1379760221214321,0.1380038276915345,0.13866608752800078,0.13311328835645775,0.1395395713495697,0.1313113801254487,0.13817868538840836,0.13865529163542886,0.12973504569948263
1.8029999732971191,black.png,0.10803302175200245,0.13991575120875255,0.13712958391065405,0.13737259207637215,0.1377831265667828,0.13626155391473221,0.13884063230045227,0.1379800677871785,0.13799240595011783,0.13865359290285026,0.13308398521947684,0.13952633911685217,0.13126734718887176,0.13817627140000718,0.13864424987366794,0.13017340811174014
1.8029999732971191,black.png,0.1080762053222901,0.1399197745227545,0.137131103829277,0.13738309739626614,0.13777297887480008,0.1362619115426435,0.1388375701114619,0.13797459160978695,0.1380049229270128,0.13866975321409145,0.13309236712364758,0.13954261118681563,0.13126593902897107,0.13817712076629649,0.13865605159474034,0.12985907552946513
1.8029999732971191,black.png,0.10809279031667594,0.13992936342112583,0.1371431067160495,0.1373648583727906,0.13778509352029486,0.13627333328406016,0.13885077999243498,0.13798824852564914,0.13800049728161065,0.1386598290395533,0.1331072086819659,0.13953320110239995,0.13129421398570704,0.13818458624894456,0.1386523188534163,0.12995404809165575
1.8029999732971191,black.png,0.1080422530224625,0.13991514771165225,0.1371270581635306,0.13738560079164513,0.13777874562486955,0.13625858113271966,0.1388359160823722,0.13797644680457674,0.13799703276122008,0.13866141601340962,0.13306710965241308,0.13953364813728905,0.13123069032796505,0.13817519851627333,0.13864800496673643,0.13010264248879463
1.8029999732971191,black.png,0.10812911190141582,0.13993209033394938,0.13714424665501673,0.13737310616649462,0.1377805784679149,0.13627467438872748,0.13884950594300102,0.1379855216128256,0.13801100260150465,0.13867270364435955,0.13310588992904304,0.13954625452116184,0.13129615858747465,0.13818615087105643,0.13866159482736526,0.1297138115422501
1.8029999732971191,black.png,0.10805906153429289,0.13992344020884517,0.13713707174504658,0.13737983404157567,0.13779101673257552,0.13626913115610256,0.13884700254762203,0.13798733210412648,0.1379998714327659,0.13866125955119843,0.1330749551147169,0.1395340728204337,0.13125163391251968,0.13818402745533317,0.13865135772840473,0.1301517269196185
2.1630001068115234,blue.png,0.1080976629969672,0.13992701648795802,0.1371384575532028,0.13738960175390263,0.1377813160754819,0.13627027109506978,0.13884385095165383,0.13798100656044562,0.1380097732555596,0.13867531879846082,0.1330852592689108,0.1395480203089738,0.13126614019467117,0.13818315573729942,0.13866074546107596,0.12984747497409282
2.1630001068115234,blue.png,0.1081147173779866,0.13993839352588577,0.13715200271034272,0.13737332968393917,0.13779528591576648,0.13628403976965425,0.13886070416697313,0.13799665278156434,0.13801225429919414,0.13867225660947044,0.1331004584551404,0.13954549456185036,0.13131001666903694,0.138197863185151,0.13866438879542217,0.12994188874267207
2.1630001068115234,blue.png,0.1080633530692283,0.13992775409552505,0.137139105753792,0.1373984753964514,0.1377928272238764,0.1362724615660264,0.1388498635709123,0.1379891202436829,0.1380081192264699,0.13867290481005964,0.13306366748376697,0.13954509223045017,0.13124618008687258,0.1381877154931683,0.13865958317036428,0.1301018154742498
2.1630001068115234,blue.png,0.10814531691614591,0.1399442273311886,0.13715555663771112,0.13738564549513405,0.1377930283895765,0.13628690079294453,0.13886238054780728,0.13799723392692018,0.13802144086616527,0.13868376775786492,0.13310508526624265,0.13955749744862286,0.13130675331434646,0.13819808670259556,0.13867245777517054,0.12972047236209777
2.1630001068115234,blue.png,0.10807687587462377,0.13993479489502847,0.13714820291378532,0.13739163576264807,0.13780225966003654,0.13627988234518557,0.13885889367567225,0.1379989773629877,0.13801089084278237,0.1386718766298147,0.13308487928925505,0.1395453828031281,0.1312592782091234,0.1381959632868723,0.13866244419365456,0.13015934886447775
2.1630001068115234,blue.png,0.10811351038378601,0.13993946640961963,0.1371511086405645,0.13740399627733185,0.13779309544480986,0.13628153637427526,0.13885654674250444,0.13799519991817474,0.13802231258419903,0.13868712051953322,0.13309612221671607,0.13956093961726898,0.1312656261045487,0.13819589623163894,0.13867339654843766,0.12985976843354324
2.1640000343322754,blue.png,0.10813271053227312,0.13994807183123492,0.1371622621610477,0.13738528786722276,0.1378038242821484,0.13629235461859163,0.1388700695478999,0.13800548172062418,0.13801806575275252,0.13867706223452833,0.13311163432736806,0.1395515295328533,0.13130344525616708,0.13820318290033137,0.13866999908328045,0.12994191109441652
2.1640000343322754,blue.png,0.10808011687756978,0.13993410199095035,0.13714654888469563,0.13740819840528945,0.13779850456696804,0.13627834007481815,0.13885583148668187,0.13799589282225286,0.1380169258137853,0.13868099614155247,0.13307734675137362,0.13955430114916575,0.13123922869434698,0.1381963209147836,0.13866845681291304,0.13011294664298853
2.1640000343322754,blue.png,0.10816708751524538,0.13995099990975857,0.13716380443141513,0.13739610611153913,0.13779939863674626,0.13629403099942577,0.1388688178502104,0.1380047217613127,0.13802926397672463,0.13869092031609062,0.13311907745827167,0.13956578994581578,0.13130896613704754,0.13820617803408838,0.13868079497585237,0.12973245289712582
2.1640000343322754,blue.png,0.10810407794762587,0.13994496493875563,0.1371588646958905,0.1374042197947764,0.13781207207585242,0.1362909688104354,0.1388695778095219,0.1380102202904487,0.13801998800277568,0.1386808843828302,0.13308644391136693,0.1395546811288215,0.13126520142140405,0.13820611097885502,0.13867198838853698,0.13016998829483847
2.1640000343322754,blue.png,0.10813765026779774,0.13994690954052325,0.13715839530925694,0.1374141216175701,0.13780085150013585,0.13629014179589055,0.13886490629493073,0.1380040735607235,0.13802950984591364,0.13869494363009258,0.1330894613968684,0.1395683380446837,0.13126513436617068,0.13820483692942107,0.1386808843828302,0.12987255363137168
2.1640000343322754,blue.png,0.10815182127378241,0.13995656549412794,0.1371701746785849,0.1373957708353723,0.13781213913108578,0.13630185410998513,0.1388783173416039,0.13801578587481808,0.1380268723400679,0.13868647231894402,0.13311237193493508,0.13956049258237987,0.13130992726205912,0.1382134199992919,0.13867889507757367,0.12995096355092092
2.1640000343322754,blue.png,0.1080877611741735,0.1399418356945319,0.1371544614022328,0.13741769789668296,0.13780690882288324,0.1362873701795781,0.13886468277748618,0.1380055264241131,0.1380240336685221,0.13868855103117836,0.13308436519913258,0.13956176663181383,0.1312589205812121,0.138205373371288,0.1386759222955611,0.1301356113118662
2.1640000343322754,blue.png,0.10816596992802262,0.13995891242729575,0.13717200752163022,0.13740645496922194,0.13780916634907323,0.1363035751943082,0.13887918905963767,0.13801464593585086,0.1380367294593727,0.13869896694409453,0.13311959154839414,0.1395732330767194,0.131330490866958,0.13821429171732566,0.1386888863073452,0.12974423226645376
2.1640000343322754,blue.png,0.1080961654300887,0.13994997172951362,0.13716337974827048,0.1374105676902017,0.13781924698582257,0.1362969143744605,0.13887666331251422,0.1380150259155066,0.13802541947667832,0.1386866287811552,0.13308199591422032,0.1395599784922574,0.13128323927917948,0.1382123247638136,0.1386781798217511,0.13017159762043926
2.1649999618530273,blue.png,0.10813139177935026,0.13995339154641528,0.13716389383839295,0.13742125182405135,0.13780849579673957,0.13629664615352705,0.13887246118455662,0.1380109802497602,0.13803704238379508,0.1387021855952961,0.13308928258291275,0.13957580352733176,0.13127494678198656,0.1382123694673025,0.13868899806606746,0.1298747441023283
2.1649999618530273,blue.png,0.10815173186680459,0.1399656403023768,0.13717831071356662,0.13740348218720938,0.1378216833259682,0.1363097666275223,0.1388876827225307,0.13802436894468892,0.13803545540993875,0.1386948318713703,0.13310830391744422,0.1395692768179508,0.13130259588987778,0.1382209301854289,0.13868754520267787,0.1299285223994878
2.1649999618530273,blue.png,0.10809258915097585,0.13995171516558114,0.13716313387908147,0.13742453753048628,0.13781593892764318,0.136294925069204,0.13887226001885652,0.13801303661025008,0.13803125328198115,0.13869565888591515,0.1330757597775173,0.13956945563190645,0.13123109265936525,0.13821114012135746,0.13868309720553126,0.1301063081748853
2.1649999618530273,blue.png,0.108177034041528,0.139968791898345,0.13718059059150106,0.13741313814081407,0.1378165871282324,0.1363106159938116,0.13888555930680743,0.13802146321790973,0.13804531252924354,0.1387076841244321,0.1331145624058917,0.1395828890303241,0.13129215762521715,0.13822204777265165,0.13869666471441564,0.1297199582719753
2.1649999618530273,blue.png,0.10811444915705314,0.13995960533137386,0.13717267807396388,0.13741691558562702,0.13782575134345906,0.13630469278153096,0.1388826759317727,0.1380227819708326,0.13803161090989244,0.13869282021436932,0.13308798618173434,0.13956719810571647,0.13125880882248983,0.13821795740341633,0.13868376775786492,0.1301401710677351
2.1649999618530273,blue.png,0.10814949669235906,0.1399603876424298,0.1371710687483631,0.13742621391132043,0.13781356964273092,0.13630294934546344,0.13887731151310342,0.13801679170331857,0.13804265267165336,0.1387083323250213,0.13309487051902658,0.1395824866989239,0.13126571551152652,0.1382182256243498,0.1386944295399701,0.12986531166616816
2.1649999618530273,blue.png,0.10816905446875745,0.1399718317355909,0.13718485977469203,0.13740931599251222,0.13782675717195955,0.1363173215171482,0.13889293538247768,0.13803089565406987,0.1380413786222194,0.13870180561564036,0.13311074025758984,0.1395763846726876,0.13130389229105618,0.1382289321099439,0.13869346841495853,0.1299279636058764
2.1649999618530273,blue.png,0.10810289330516974,0.13995859950287337,0.1371699735128848,0.1374320253648788,0.13782369498296917,0.1363042680983863,0.13887985961197133,0.13802226788071012,0.13803719884600626,0.1387024314644851,0.1330711553181595,0.1395759376377985,0.13123983219144728,0.13821943261855038,0.13868906512130083,0.130118467523869
2.1649999618530273,blue.png,0.10818291255031974,0.13997370928212516,0.1371847256642253,0.13741883783565018,0.13782295737540215,0.13631741092412603,0.13889201896095502,0.138029085162769,0.13805159336943548,0.13871432259253533,0.13310939915292253,0.13958925927749385,0.13131209538127128,0.13822989323495546,0.13870310201681876,0.12972720023717882
2.1649999618530273,blue.png,0.10811541028206471,0.13996635555819936,0.13717889185892246,0.13742393403338599,0.13783444617205218,0.1363124264851125,0.13889195190572165,0.13803194618605927,0.1380396798896408,0.13870039745573967,0.13309098131549135,0.1395751329749981,0.1312848262530358,0.1382264734180538,0.1386926861039026,0.13014998348355097
2.1659998893737793,blue.png,0.10815374352380556,0.13996836721520034,0.1371784224722889,0.13743486403642463,0.13782340441029126,0.1363103701246226,0.1388871239289193,0.1380249724417892,0.13805045343046826,0.1387154401797581,0.13310439236216454,0.13959030980948325,0.13128701672399243,0.13822544523780886,0.13870290085111867,0.1298757499308288
2.1659998893737793,blue.png,0.10817459770138237,0.1399812865234955,0.1371940239899187,0.13741870372518344,0.13783677075347553,0.1363252787381743,0.13890315012969376,0.13803952342742962,0.13805356032294755,0.1387131379500792,0.1331305215514328,0.13958885694609366,0.13132239953546518,0.13823966094728243,0.13870600774359795,0.12992174982091784
2.1659998893737793,blue.png,0.1081197688722335,0.13997066944487924,0.13718215521361293,0.13744389414118457,0.1378349826139191,0.13631443814211347,0.13889190720223274,0.1380332872907266,0.13804859823567847,0.13871320500531256,0.133093909394015,0.1395879852280599,0.13125015869738563,0.138229870883211,0.13870124682202897,0.13011670173605702
2.1659998893737793,blue.png,0.10820262678892932,0.13998501926481954,0.13719625916436423,0.13743041603927802,0.13783317212261822,0.13632751391261982,0.13890169726630416,0.13803856230241804,0.13806176341316265,0.13872438087754022,0.13312435246996313,0.13960025633576587,0.13130617216899063,0.13823961624379352,0.1387135849849683,0.1297257026703003
2.1659998893737793,blue.png,0.1081353703898633,0.13997775494787157,0.13718993362068338,0.1374347746294468,0.13784412447740133,0.1363234235433845,0.13890095965873714,0.13804265267165336,0.1380504310787238,0.13871150627273396,0.1330946022980931,0.13958644295769249,0.13126710131968275,0.1382382304356373,0.1387032361272855,0.13013429255894335
2.1659998893737793,blue.png,0.10816429354718847,0.13997945368045017,0.1371891736613719,0.13744579403946328,0.13783346269529614,0.13632226125267283,0.13889655636507944,0.13803619301750578,0.13806107050908453,0.1387264372380301,0.1331015089871298,0.13960126216426635,0.13126596138071553,0.13823751517981472,0.13871322735705702,0.12986663041909102
2.1659998893737793,blue.png,0.10818061032064084,0.1399913448085004,0.13720365759177894,0.13742809145785467,0.13784615848614676,0.13633670047959096,0.13891244845538717,0.1380504310787238,0.13806082463989552,0.1387208940054052,0.1331229666618069,0.13959621067001945,0.13130556867189033,0.13824846753459782,0.13871231093553435,0.12989684997759463
2.1659998893737793,blue.png,0.10811418093611967,0.13997762083740484,0.13718843605380487,0.13745004087090978,0.13784244809656718,0.13632286474977312,0.13889850096684705,0.13803954577917407,0.13805572844215971,0.1387200893426048,0.13308988608001304,0.13959464604790758,0.13124939873807415,0.13823831984261511,0.13870815351106566,0.1301019048812276
2.1659998893737793,blue.png,0.10819254615217998,0.13999163538117831,0.13720213767315598,0.1374366745277255,0.1378404364395662,0.13633471117433443,0.13890936391465233,0.1380467877443776,0.1380676419219544,0.1387297452962095,0.1331224078681955,0.13960550899571286,0.13131290004407167,0.13824600884270774,0.1387190835141043,0.12972018178941985
2.1659998893737793,blue.png,0.10812323339262407,0.1399852427822641,0.13719695206844235,0.13744190483592805,0.13785181347749395,0.13633055374986575,0.13890920745244115,0.13804976052639015,0.1380579859683497,0.1387180329821149,0.13309701628649429,0.13959359551591818,0.13127736077038774,0.13824507006944062,0.13871025457504446,0.130099714410271
2.1670000553131104,blue.png,0.10815121777668212,0.1399862933142535,0.13719558861203057,0.13745366185351154,0.1378403917360773,0.1363276256713421,0.1389042230134276,0.13804187036059742,0.13806531734053104,0.13872981235144285,0.1331042582516978,0.13960555369920177,0.13127901479947743,0.13824104675543866,0.13871772005769253,0.12984772084328183
2.1670000553131104,blue.png,0.10818038680319629,0.13999505519807998,0.13720685389123605,0.13743260651023465,0.13784901950943704,0.13633830980519174,0.13891600238275556,0.13805286741886943,0.1380641326980749,0.13872355386299537,0.13313110269678863,0.13959980930087676,0.1313195385121749,0.13825059095032108,0.1387173847815257,0.129870899602282
2.1670000553131104,blue.png,0.10811876304373301,0.1399828958490963,0.13719330873409613,0.13745634406284618,0.13784656081754695,0.13632626221493033,0.13890326188841604,0.1380436361484094,0.1380609811021067,0.1387256325752297,0.1330907130945579,0.13960092688809952,0.13125035986308572,0.13824323722639528,0.13871416613032414,0.13005498856961592
2.1670000553131104,blue.png,0.10819746353596014,0.13999901145684857,0.13720935728661504,0.137445436411552,0.13784620318963567,0.13634130493894875,0.13891515301646626,0.1380533815089919,0.13807457096273554,0.13873770251723558,0.13313215322877803,0.13961427087953934,0.13131705746854036,0.13825356373233363,0.13872824772933098,0.12969702538216415
2.1670000553131104,blue.png,0.10812868721827117,0.13999136716024485,0.137203121149912,0.13744937031857613,0.13785735671011887,0.13633723692145788,0.13891481774029943,0.13805651075321565,0.13806245631724076,0.1387238891391622,0.13311228252795726,0.1395997422456434,0.13128630146816986,0.13825101563346573,0.13871620013906957,0.13005688846789462
2.1670000553131104,blue.png,0.10815579988429545,0.1399909871805891,0.1372001707196439,0.13745969682451448,0.1378454432303242,0.13633406297374523,0.1389085816035964,0.1380472794827556,0.1380712405528117,0.13873700961315746,0.13311413772274705,0.13961257214696074,0.13127736077038774,0.13824815461017545,0.13872440322928467,0.1298285877500281
2.1670000553131104,blue.png,0.10818465598638725,0.1400033923987618,0.13721454289132867,0.1374414354492945,0.13785762493105233,0.13634845749717445,0.13892380314157046,0.1380611375643179,0.1380729839888792,0.13873303100264442,0.1331354612869574,0.1396090405713368,0.13131806329704085,0.13826060453183706,0.13872652664500792,0.12984369752927988
2.1670000553131104,blue.png,0.1081218699362123,0.13998980253813298,0.13719929900161015,0.1374629825309494,0.13785384748623938,0.13633471117433443,0.13891030268791946,0.13805210745955795,0.1380664349277538,0.13873106404913235,0.13309797741150586,0.13960611249281316,0.13124933168284078,0.13825018861892088,0.13871937408678223,0.13002901584255885
2.1670000553131104,blue.png,0.10820396789359664,0.14000455468947348,0.13721405115295066,0.13745010792614315,0.13785188053272732,0.13634733990995168,0.13892125504270256,0.13805874592766118,0.138079845974427,0.13874215051438218,0.1331430161765833,0.13961892004238605,0.1313196949743861,0.13825955399984766,0.13873305335438887,0.12968044038777832
2.1670000553131104,blue.png,0.10814310409344484,0.1399970892068254,0.137208373809859,0.1374534830395559,0.1378627434805326,0.13634280250582725,0.13892154561538048,0.13806272453817423,0.13806981004116656,0.1387299464619096,0.13312629707173074,0.13960635836200216,0.1312910847414833,0.13825879404053618,0.13872295036589508,0.13003471553739496
2.265000104904175,blue.png,0.10817531295720494,0.13999927967778203,0.13720823969939228,0.1374665811618067,0.13785302047169454,0.13634085790405964,0.13891709761823387,0.13805595195960427,0.13807991302966036,0.1387437374882385,0.13313579656312424,0.13962030585054228,0.1312948845380407,0.13825575420329025,0.13873305335438887,0.12981338856379848
2.265000104904175,blue.png,0.10820720889654266,0.14001063436396533,0.1372220754292101,0.13744805156565326,0.13786433045438892,0.13635335252921016,0.1389321850457412,0.13806929595104409,0.13808067298897184,0.1387388424562028,0.13316324450531536,0.13961590255688458,0.13134271727117505,0.1382669300755179,0.13873430505207837,0.12981908825863459
2.265000104904175,blue.png,0.10814379699752295,0.13999722331729214,0.1372075244435697,0.13747096210371995,0.1378610894514429,0.1363402320552149,0.13891870694383465,0.13806017643930632,0.1380761355848474,0.13873931184283636,0.1331215585019062,0.13961507554233973,0.1312651790696596,0.1382573858806355,0.13872867241247563,0.13001015097023857
2.265000104904175,blue.png,0.10823052176600954,0.1400130483523665,0.1372229247954994,0.13745960741753666,0.13785990480898677,0.1363543360059662,0.13892921226372865,0.13806563026495342,0.13808916665186485,0.13875100180518649,0.13315110750807613,0.13962821836807945,0.13131269887837158,0.13826632657841761,0.13874237403182674,0.1296544453089768
2.265000104904175,blue.png,0.10816134311692037,0.1400071027883414,0.13721829798439716,0.13746405541468326,0.13787170653005917,0.136351430279187,0.13892907815326191,0.13807027942780012,0.1380792871808156,0.13873937889806973,0.1331235701589072,0.1396157907981623,0.13127090111624015,0.13826619246795088,0.13873151108402146,0.1299921801676965
2.2660000324249268,blue.png,0.10818858989341139,0.1400079968581196,0.13721655454832965,0.1374765947433227,0.13786075417527607,0.13634897158729692,0.13892355727238145,0.1380621433928184,0.13808711029137496,0.13875176176449797,0.1331316614904,0.13962801720237936,0.13127394095348607,0.13826259383709358,0.13873958006376982,0.12979570833393433
2.2660000324249268,blue.png,0.10821268507393421,0.14001733988730192,0.1372283339176576,0.13745625465586836,0.13787005250096948,0.13636099682581387,0.13893694596731018,0.13807445920401326,0.13808628327683012,0.1387451903516281,0.1331589753221244,0.1396219375278875,0.13133310602105927,0.13827341208140995,0.1387396471190032,0.12980225739505974
2.2660000324249268,blue.png,0.10814806618071392,0.14000265479119478,0.13721206184769413,0.13747811466194565,0.13786616329743426,0.13634687052331812,0.1389230878857479,0.13806712783183192,0.13808127648607213,0.13874463155801672,0.1331162611384703,0.1396202387953089,0.13127090111624015,0.13826480665979465,0.1387340368311449,0.1300062841184478
2.2660000324249268,blue.png,0.10823152759451003,0.14001973152395863,0.13722855743510215,0.13746861517055214,0.13786685620151237,0.136362427337459,0.13893676715335454,0.13807474977669118,0.1380966991897463,0.13875842258434565,0.13314625717952933,0.1396353038710718,0.1313295967971798,0.1382759378285334,0.1387500406801749,0.12965793218111182
2.2660000324249268,blue.png,0.10816708751524538,0.1400145012157561,0.13722462352807802,0.13747339844386558,0.1378795966958519,0.13635985688684665,0.13893830942372196,0.13807877309069314,0.13808605975938557,0.13874572679349503,0.13312229610947324,0.1396220492866098,0.13129504100025188,0.1382746861308439,0.13873848482829151,0.1299994891881334
2.2660000324249268,blue.png,0.10819757529468242,0.1400139424221447,0.13722200837397674,0.1374852895719158,0.13786737029163484,0.1363560794420337,0.138931536845152,0.1380710393871116,0.13809553689903462,0.13875936135761277,0.13314185388587163,0.13963606383038327,0.13130876497134744,0.13827289799128747,0.13874838665108521,0.12981148866551978
2.2660000324249268,blue.png,0.10823441096954477,0.14002683937869542,0.13723767694683991,0.13746751993507383,0.137879551992363,0.13637007163406273,0.13894745128720418,0.13808541155879636,0.1380956933612458,0.1387537510697545,0.13317609675837716,0.13963145937102547,0.13136366085572967,0.13828335860769256,0.1387495936452858,0.12980990169166345
2.2660000324249268,blue.png,0.10817272015484812,0.14001003086686503,0.13721950497859775,0.13748663067658312,0.13787315939344877,0.13635274903210987,0.13893122392072962,0.13807282752666802,0.13808762438149744,0.13874961599703026,0.13313188500784456,0.13962636317328966,0.1312917776455614,0.1382700369679972,0.13874065294750368,0.13001486718831864
2.427999973297119,blue.png,0.1082518453302199,0.14002645939903968,0.1372352853101832,0.13747670650204497,0.13787273471030412,0.13636624948576087,0.13894246684819064,0.13807743198602582,0.13810362823052744,0.13876405522394838,0.13315682955465669,0.13964223291185293,0.13133641407923866,0.13828047523265782,0.13875688031397823,0.12965911682356795
2.427999973297119,blue.png,0.1081848348003429,0.14002107262862595,0.13723175373455926,0.13748077451953583,0.13788527403894354,0.13636430488399326,0.13894311504877985,0.1380836457709844,0.13809158064026603,0.1387506441772752,0.1331267217548754,0.13962808425761272,0.13128907308448232,0.13827866474135694,0.13874367043300515,0.12999555528110926
2.427999973297119,blue.png,0.10820627012327554,0.14001885980592488,0.1372272833856682,0.13749168217083002,0.13787161712308135,0.13636019216301348,0.13893466608937574,0.13807385570691297,0.13810047663455924,0.13876456931407086,0.1331216702606285,0.13964156235951927,0.13127809837795476,0.13827631780818914,0.138752499372065,0.1297995304822362
2.428999900817871,blue.png,0.10823163935323231,0.1400326955357427,0.13724297431027582,0.13747435956887716,0.1378844917278876,0.13637639717774358,0.13895172047039514,0.13808947957628723,0.13810170598050428,0.13876063540704672,0.13314035631899312,0.1396378519699397,0.13132222072150954,0.13828829834321718,0.13875413104941023,0.12978649941521875
2.428999900817871,blue.png,0.10816299714601006,0.14001827866056904,0.13722679164729018,0.13749557137436524,0.13788140718715278,0.13636267320664802,0.13893781768534394,0.1380808965064164,0.1380952463263567,0.13875907078493485,0.13309799976325032,0.13963463331873813,0.1312552772468659,0.13827855298263467,0.13874693378769562,0.12999524235668689
2.428999900817871,blue.png,0.10824762085051785,0.1400326955357427,0.13724085089455257,0.1374837473015484,0.13787906025398497,0.13637534664575418,0.1389484347639602,0.13808590329717438,0.13810767389627385,0.13877013489844023,0.13313970811840392,0.13964688207469964,0.1313263334424893,0.1382864878519163,0.13876112714542474,0.12965558524794402
2.428999900817871,blue.png,0.10818125852123005,0.14002453714901653,0.13723441359214944,0.13748466372307105,0.13788876091107857,0.13637065277941857,0.13894821124651566,0.13808930076233158,0.13809725798335767,0.13875768497677862,0.13312017269374998,0.13963382865593774,0.1313020370962664,0.13828639844493848,0.13875033125285283,0.1299946388595866
2.428999900817871,blue.png,0.10820535370175287,0.14002628058508404,0.1372337877433047,0.13749930411568928,0.13787977550980754,0.1363685293636953,0.13894436674646934,0.13808306462562855,0.13810671277126227,0.13877114072694072,0.1331268111618532,0.13964741851656656,0.1312993325351873,0.13828382799432612,0.13876025542739098,0.12980565486021695
2.428999900817871,blue.png,0.10823387452767784,0.14003761291952288,0.1372472881969557,0.13747909813870168,0.1378901914227237,0.13638080047140128,0.1389594988774656,0.1380957380647347,0.1381085456143076,0.1387666480263052,0.13316159047622567,0.13964386458919817,0.13135067449220114,0.1382953838462095,0.13876237884311424,0.12978694645010785
2.428999900817871,blue.png,0.10817135669843635,0.14002417952110524,0.13723309483922658,0.13750151693839036,0.13788815741397828,0.1363678364596172,0.13894861357791585,0.13808800436115318,0.13810226477411566,0.13876488223849323,0.13312417365600748,0.13964093651067452,0.13127644434886507,0.1382855937821381,0.13875536039535527,0.13000574767658088
2.430000066757202,blue.png,0.10825126418486407,0.14003841758232327,0.13724657294113313,0.13748991638301805,0.13788540814941028,0.13638006286383425,0.13895956593269895,0.13809207237864404,0.13811446882658826,0.13877605811072088,0.13314379848763924,0.13965264882476913,0.13130849675041398,0.13829205343628567,0.13876881614551737,0.12965060080893048
2.430000066757202,blue.png,0.10818047621017411,0.1400328519979539,0.13724161085386405,0.13749195039176348,0.13789662872512684,0.13637695597135496,0.13895952122921004,0.13809631921009055,0.13810606457067306,0.13876629039839392,0.13310459352786463,0.1396406459379966,0.13125033751134127,0.13829296985780834,0.13875871315702357,0.1299700742924302
2.430000066757202,blue.png,0.10819281437311344,0.14003488600669933,0.1372399791765188,0.13750645667391498,0.13788657044012195,0.13637505607307626,0.13895417916228522,0.13808831728557555,0.138115094675433,0.13877981320378938,0.13309098131549135,0.13965309585965824,0.13122423067381747,0.13828847715717282,0.1387676538548057,0.1297709202493334
2.430000066757202,blue.png,0.10821241685300075,0.1400459501202047,0.13725334551970308,0.13748575895854936,0.13789595817279318,0.13638813184358262,0.13896810429908088,0.13810038722758142,0.13811627931788914,0.13877552166885396,0.13311947978967187,0.13964887137995619,0.13127360567731924,0.138299384808467,0.13876995608448459,0.12973363753958195
2.430000066757202,blue.png,0.10813798554396457,0.14003222614910915,0.13723836985091803,0.1375075519093933,0.13789352183264755,0.1363745866864427,0.13895484971461888,0.13809120066061029,0.13811111606491996,0.13877442643337565,0.13307039535884801,0.13964603270841033,0.1311989061473496,0.13828972885486232,0.1387624458983476,0.12991978286740577
2.430999994277954,blue.png,0.10820229151276249,0.14004628539637154,0.1372516914906134,0.13749541491215406,0.13789090667854628,0.13638726012554886,0.1389644386129902,0.13809578276822362,0.1381222472336587,0.138784752939314,0.13309994436501793,0.13965723093238247,0.13125943467133458,0.1382965461369212,0.13877543226187614,0.12955509180487296
2.430999994277954,blue.png,0.10813414104391826,0.14003727764335605,0.1372438907317985,0.13749382793829773,0.1378996015071394,0.13638191805862404,0.13896180110714448,0.1380981520531359,0.1381097526085082,0.1387708054507739,0.1330722058501489,0.13964207644964174,0.13122563883371816,0.1382946462386425,0.1387619988634585,0.12986712215746904
2.430999994277954,blue.png,0.10814413227368978,0.14003732234684496,0.13724174496433078,0.13750793188904903,0.1378892526494566,0.13637925820103386,0.1389561461157973,0.1380904407012988,0.13812028028014664,0.1387857587678145,0.13307312227167156,0.13965702976668237,0.13122268840345006,0.13829276869210824,0.1387723030176524,0.12966890688763938
2.430999994277954,blue.png,0.10815765507908524,0.14004834175686143,0.13725571480461535,0.13748828470567281,0.1378989533065502,0.13639186458490665,0.1389706971014377,0.13810295767819378,0.13811978854176862,0.13877952263111146,0.13310698516452135,0.1396516653480131,0.1312841333489577,0.13830191055559046,0.13877301827347496,0.12962485159931797
2.431999921798706,blue.png,0.10808248616248205,0.14003533304158844,0.13724174496433078,0.13751108348501723,0.1378974557396717,0.1363790346835893,0.13895820247628718,0.1380952910298456,0.13811498291671073,0.13877941087238918,0.13306333220760014,0.13965014542939014,0.13121824040630345,0.13829437801770902,0.13876577630827144,0.12983515916289795
2.431999921798706,blue.png,0.1081452275091681,0.14004903466093954,0.13725506660402614,0.1374995499848783,0.13789417003323676,0.13639070229419498,0.13896765726419177,0.13810007430315904,0.13812803633547263,0.13879058674461683,0.13309723980393884,0.1396630200341964,0.13128192052625662,0.13830115059627898,0.13878110960496778,0.12948533201042794
2.809999942779541,blue.png,0.1080841625433162,0.14004454196030403,0.13725227263596923,0.13750225454595738,0.13790706698978747,0.13638857887847172,0.13896937834851483,0.13810548342531723,0.1381177545330232,0.13877762273283276,0.13308023012640835,0.13964969839450103,0.13125230446485334,0.13830088237534552,0.138768994959473,0.12975218948747985
2.809999942779541,blue.png,0.10810510612787082,0.1400417032887582,0.13724746701091134,0.1375143021362188,0.13789352183264755,0.13638261096270216,0.13895956593269895,0.13809620745136827,0.1381226495650589,0.13878716692771517,0.13307788319324054,0.13965897436844998,0.13123267963322158,0.13829346159618636,0.13877346530836407,0.12954235131053343
2.809999942779541,blue.png,0.10813414104391826,0.14005153805631854,0.13725987222908403,0.1374921962609525,0.13790087555657335,0.136393697427952,0.13897156881947145,0.13810537166659495,0.1381234989313482,0.13878236130265728,0.13310593463253195,0.1396550181096814,0.13128066882856712,0.13830392221259144,0.13877502993047594,0.12947033398989843
2.811000108718872,blue.png,0.10805622286274706,0.14003718823637823,0.13724420365622086,0.1375135421769073,0.13789779101583852,0.13637934760801168,0.13895733075825342,0.1380962968583461,0.13811487115798846,0.13877851680261097,0.1330606052947766,0.13964949722880093,0.13121312185682318,0.13829220989849686,0.13876418933441512,0.12963980491635857
2.811000108718872,blue.png,0.10813284464273985,0.14004941464059528,0.13725591597031545,0.1375012487174569,0.13789341007392528,0.13638996468662795,0.1389656456071908,0.13809891201244737,0.13812754459709461,0.1387904526341501,0.1330907130945579,0.13966250594407392,0.13127376213953043,0.13829992125033394,0.138779746148556,0.1292345007341505
2.811000108718872,blue.png,0.10806346482795058,0.14004387140797037,0.13725231733945814,0.13750236630467966,0.13790561412639787,0.13638831065753826,0.1389668973048803,0.13810438818983892,0.1381163016696336,0.13877751097411048,0.13307064122803702,0.1396487596212339,0.13124955520028533,0.13830025652650077,0.1387670503577054,0.12955891395317481
2.812000036239624,blue.png,0.10807600415659001,0.14004156917829147,0.13724771288010035,0.1375155985373972,0.13789347712915864,0.13638316975631354,0.13895927536002103,0.13809576041647917,0.13812211312319198,0.1387878598317933,0.1330678025564912,0.1396590190719389,0.13124030157808084,0.13829435566596457,0.13877337590138625,0.12929214588310073
2.812000036239624,blue.png,0.1081035638575034,0.14005214155341883,0.1372607886506067,0.1374949455255205,0.13790266369612977,0.1363952396983194,0.13897313344158332,0.13810635514335098,0.1381238565592595,0.13878417179395816,0.13309797741150586,0.13965600158643743,0.13129519746246307,0.13830535272423658,0.1387767957182879,0.1292627980426309
2.812000036239624,blue.png,0.10802745616763308,0.14003602594566655,0.13724364486260948,0.1375145927088967,0.1378989533065502,0.13637950407022287,0.13895864951117629,0.1380957380647347,0.1381142453091437,0.13877900854098899,0.13306346631806687,0.13964943017356757,0.13123518302860057,0.13829346159618636,0.13876591041873818,0.12946881407127547
2.812999963760376,blue.png,0.10810608960462685,0.14004782766673896,0.13725542423193743,0.13750232160119075,0.1378939018123033,0.13638962941046112,0.13896640556650228,0.13809987313745894,0.13812649406510522,0.138790005599261,0.13309918440570645,0.13966174598476244,0.13129287288103972,0.13830030122998968,0.1387797014450671,0.12898825156548638
2.812999963760376,blue.png,0.10804261065037378,0.14004286557946988,0.13725187030456903,0.1375031486157356,0.13790637408570935,0.13638701425635985,0.13896785842989187,0.13810371763750526,0.13811576522776667,0.1387765945525878,0.13307748086184035,0.1396478431997112,0.13126365915103663,0.1382999436020784,0.13876816794492816,0.12937035463694985
2.812999963760376,blue.png,0.10805461353714628,0.14004058570153544,0.13724744465916688,0.137517699601376,0.13789477353033705,0.1363825886109577,0.13895985650537687,0.13809611804439045,0.13812340952437038,0.1387887539015715,0.1330811018444421,0.13965984608648374,0.13125804886317835,0.1382959873433098,0.13877583459327633,0.12909509290398274
2.813999891281128,blue.png,0.10808673299392856,0.14005048752432914,0.13726007339478413,0.1374968454237992,0.1379025966408964,0.13639423386981891,0.13897226172354957,0.1381072939166181,0.13812034733538,0.1387801484799562,0.13311098612677885,0.1396521123829022,0.13131021783473704,0.1383026481631575,0.1387736441223197,0.1290711094821822
2.813999891281128,blue.png,0.10801701790297245,0.14003124267235312,0.1372397780108187,0.13751376569435186,0.13789508645475942,0.13637487725912062,0.13895332979599592,0.13809222884085523,0.1381108478439865,0.13877458289558683,0.13307233996061563,0.13964547391479895,0.1312387146042245,0.13828990766881796,0.13876215532566968,0.12930350056928402
2.813999891281128,blue.png,0.10809781945917839,0.14004534662310442,0.13725341257493645,0.13750397563028044,0.13789162193436885,0.13638685779414866,0.1389622481420336,0.13809750385254668,0.1381245047598487,0.13878734574167081,0.13310542054240948,0.1396596672725281,0.13129430339268486,0.13829855779392217,0.13877710864271028,0.12884710029925112
2.813999891281128,blue.png,0.10804491288005268,0.1400400045561796,0.1372496351301235,0.13750415444423608,0.13790322248974116,0.13638446615749195,0.1389635892467009,0.1381024435880713,0.13811183132074253,0.1387725488868414,0.13308496869623287,0.13964426692059836,0.13126960471506174,0.13829710493053257,0.13876367524429264,0.12926943651073414
2.815000057220459,blue.png,0.10806587881635175,0.14003662944276685,0.1372437789730762,0.13751698434555343,0.1378901020157459,0.13637764887543308,0.13895353096169602,0.13809113360537692,0.13811730749813408,0.1387826518753352,0.13308302409446526,0.139653967577692,0.13125675246199994,0.1382900864827736,0.13876877144202845,0.12898715633000807
2.815000057220459,blue.png,0.10810658134300487,0.14004519016089323,0.13725486543832605,0.13749385029004219,0.13789647226291565,0.1363876848086935,0.13896486329613486,0.13810018606188132,0.1381165028353337,0.13877643809037662,0.13311344481866894,0.13964842434506705,0.13131336943070523,0.1382985354421777,0.13876930788389538,0.12897667336185853
2.815000057220459,blue.png,0.10803380406305839,0.140030549768275,0.13723899569976278,0.13751463741238562,0.13789504175127051,0.13637317852654202,0.1389514969529506,0.13809075362572118,0.13810836680035196,0.13877245947986358,0.13307242936759345,0.13964308227814223,0.13124785646770673,0.13828803012228372,0.13876003190994643,0.12921612760020823
2.815000057220459,blue.png,0.10811444915705314,0.14004177034399157,0.13724981394407915,0.1375025004151464,0.13788958792562342,0.13638272272142443,0.13895838129024282,0.1380933911315669,0.13811902858245714,0.1387824507096351,0.1331042135482089,0.13965430285385882,0.13130201474452194,0.1382938415758421,0.1387721018519523,0.12876232013253214
2.815000057220459,blue.png,0.1080662587960075,0.14003477424797706,0.13724451658064324,0.13750022053721195,0.13789951210016158,0.13637914644231158,0.13895842599373173,0.13809692270719084,0.1381049916869392,0.13876658097107183,0.13308192885898695,0.13963767315598405,0.1312719292964851,0.1382913381804631,0.13875750616282298,0.12920057078606734
2.815000057220459,blue.png,0.10807937927000276,0.14002978980896352,0.1372371852084619,0.1375115975751397,0.13788502816975454,0.13637116686954104,0.13894698190057062,0.13808487511692943,0.13811131723062006,0.13877789095376622,0.13308398521947684,0.13964873726948945,0.13125849589806746,0.13828595141004937,0.13876363054080373,0.12892951118105783
2.815999984741211,blue.png,0.10811990298270023,0.14004132330910246,0.13725119975223538,0.13749116808070755,0.13789363359136983,0.1363842873435363,0.13896137642399983,0.13809660978276847,0.13811187602423144,0.13877272770079704,0.13311134375469014,0.13964431162408728,0.13131021783473704,0.1382951379770205,0.1387651951629156,0.1289237220792439
2.815999984741211,blue.png,0.10804529285970842,0.14002567708798375,0.13723432418517162,0.1375109940780394,0.13789061610586836,0.13636899875032887,0.13894682543835943,0.1380860374076411,0.13810441054158337,0.13876886084900628,0.13307229525712672,0.13963941659205156,0.1312445707612718,0.13828436443619305,0.13875571802326656,0.12917061944849723
2.815999984741211,blue.png,0.108126519099059,0.140038305823601,0.13724672940334431,0.13750073462733442,0.1378858998877883,0.13637997345685643,0.1389546932524077,0.13808963603849841,0.13811560876555548,0.13877896383750007,0.1331075663098772,0.13965108420265726,0.13130125478521046,0.13829013118626252,0.13876827970365044,0.12872309282101307
2.815999984741211,blue.png,0.10807361251993329,0.1400299015676858,0.13724062737710802,0.1374970465894993,0.13789526526871507,0.136375190183543,0.13895370977565166,0.13809227354434414,0.13810146011131527,0.13876177534601394,0.13308997548699086,0.13963367219372655,0.13127747252911,0.1382864878519163,0.13875308051742083,0.12916744550078457
2.816999912261963,blue.png,0.10808380491540491,0.14002478301820553,0.13723305013573767,0.13750927299371635,0.13788118366970822,0.13636694238983899,0.13894298093831312,0.1380789966081377,0.13810673512300672,0.13877207950020784,0.13308972961780186,0.13964388694094262,0.13126569315978207,0.1382804305291689,0.13875831082562337,0.128891915546884
2.816999912261963,blue.png,0.10812338985483526,0.14003448367529914,0.13724500831902126,0.13748712241496114,0.13788762097211135,0.13637836413125565,0.13895527439776353,0.13809030659083207,0.1381063998468399,0.13876622334316055,0.13311223782446835,0.13963867898448454,0.1313126318231382,0.13828881243333965,0.13875875786051248,0.1288872216805484
2.816999912261963,blue.png,0.10804909265626582,0.14001957506174745,0.13722887035952452,0.137507194281482,0.13788540814941028,0.13636376844212633,0.13894150572317907,0.13808103061688312,0.13809862143976945,0.13876242354660315,0.13307193762921543,0.13963371689721546,0.1312434755257935,0.13827897766577932,0.13874972775575253,0.1291463231022743
2.816999912261963,blue.png,0.10812649674731455,0.14003101915490856,0.13724011328698554,0.13749528080168733,0.137879551992363,0.13637306676781974,0.1389483453569824,0.13808257288725054,0.13810932792536354,0.13877239242463021,0.1331059122807875,0.13964495982467648,0.13129989132879868,0.13828387269781503,0.13876206591869186,0.12869410260845454
2.816999912261963,blue.png,0.10807591474961219,0.14002491712867227,0.13723575469681676,0.1374921962609525,0.13788996790527916,0.1363697810613848,0.1389489935575716,0.1380866409047414,0.13809745914905777,0.13875808730817882,0.1330924118271365,0.13962996180414697,0.13127745017736556,0.13828317979373692,0.1387495489417969,0.12913984109638227
