Timestamp,Filename,1/Fp1,2/Fp2,3/Cz,4/Pz,5/P7,6/P8,7/O1,8/O2,9/CP5,10/CP6,11/CP1,12/CP2,13/PO3,14/PO4,15/P3,16/P4
0.2070000171661377,car (1).jpg,0.07684310696638906,0.11726366636319951,0.11562009788991187,0.11542094384681509,0.11454366022868874,0.11335550854867799,0.11649125713005747,0.11514438571266958,0.11241606472922143,0.11690659724552599,0.1090065296300089,0.1179808444357925,0.10909908820379832,0.11095991563319155,0.11744800119972243,0.11601406973768112
0.2070000171661377,car (1).jpg,0.07693982296464717,0.11727220472958144,0.11562092490445672,0.1154205862189038,0.11454710239733486,0.11335930834523539,0.11649089950214618,0.11514825256446035,0.11236288992916225,0.11691070996650577,0.108969470437702,0.11797863161309143,0.10901915836562615,0.11108204556489534,0.11744415669967612,0.11604717267121943
0.2070000171661377,car (1).jpg,0.07691431962422367,0.11726983544466918,0.11562092490445672,0.1154367912336339,0.11454334730426637,0.11335836957196826,0.11648984897015678,0.11514740319817104,0.11238401232767252,0.11690827362636014,0.10897456663543781,0.11798368310733832,0.1090800445175224,0.1109590886186467,0.11745054929859033,0.11603557211584713
0.2070000171661377,car (1).jpg,0.07687042079811345,0.1172711765493365,0.11562720574464866,0.11541814987875817,0.11455139393227028,0.11336301873481497,0.11649912494410573,0.11515180649182874,0.11242279260430248,0.11691473328050772,0.10902512628139571,0.11798484539805,0.10908728648272592,0.11105582696864927,0.11745142101662409,0.1160289336477439
0.20800018310546875,car (1).jpg,0.07697732919184318,0.11727519986333845,0.11562215425040176,0.11543790882085667,0.1145464318450012,0.11336118589176963,0.11649230766204687,0.1151493254481942,0.11236539332454125,0.1169129451409513,0.10895809339977425,0.1179841971974608,0.10903540808384515,0.1110433099917543,0.11744887291775619,0.1160588402818251
0.20800018310546875,car (1).jpg,0.07686986200450206,0.11727350113075985,0.11563037969236131,0.11543232088474284,0.1145531820718267,0.11336648325520554,0.11650093543540661,0.11515506984651921,0.11243937759868831,0.11691640966134187,0.10902432161859532,0.11799014276148591,0.1091074030527357,0.11098260265381368,0.11745658426959327,0.11602609497619808
0.20800018310546875,car (1).jpg,0.07694713198508406,0.11727875379070685,0.11562769748302668,0.11542865519865217,0.11455414319683828,0.11336710910405029,0.11649896848189455,0.11515556158489723,0.1123912766446205,0.11691967301603234,0.10899356561822482,0.11798710292423999,0.10905601639223295,0.11111463440831118,0.11745273976954695,0.11605810267425808
0.20800018310546875,car (1).jpg,0.07687922738542884,0.11728145835178594,0.11563701816046454,0.11542972808238602,0.11456192160390873,0.11337359110994233,0.1165090938221328,0.1151623788669561,0.11244375854060155,0.11692608796669102,0.10905168015380862,0.11799626713946666,0.10911696959936257,0.11107580942819231,0.1174632227376965,0.1160409365345164
0.20800018310546875,car (1).jpg,0.07698273831400136,0.11728896853792292,0.11563525237265257,0.11545207982684133,0.11456028992656349,0.11337493221460965,0.11650583046744233,0.11516266943963402,0.11239080725798693,0.11692602091145765,0.10899539846127015,0.11799798822378972,0.10907517183723114,0.1110629124716416,0.11746344625514105,0.11607267601164294
0.20800018310546875,car (1).jpg,0.07687355004233719,0.11728494522392097,0.11564202495122253,0.11544465904768217,0.11456480497894346,0.11337761442394428,0.11651240188031219,0.11516481520710173,0.11240920274367365,0.11693362050457246,0.10902070063599356,0.11800196683430277,0.10906927097669494,0.11113311930097572,0.11746742486565409,0.1160701949680084
0.20800018310546875,car (1).jpg,0.07694295220887092,0.11730615702940905,0.11565592773627373,0.11545637136177675,0.11458232874659642,0.11339466880496368,0.11652742225258615,0.11518374713465537,0.11242531835142593,0.11693216764118286,0.1090221311476387,0.11800766652913887,0.10911962945695275,0.11099518668594202,0.11747444331341306,0.11606058371789262
0.2090001106262207,car (1).jpg,0.07687538288538252,0.11729797629093841,0.11565460898335087,0.11545842772226664,0.11457785839770536,0.11339089136015074,0.11652565646477418,0.11517981322763124,0.11245538144771831,0.11693952136510866,0.10907134968892929,0.11801021462800677,0.10913243700652564,0.11107122732057897,0.11747721492972552,0.1160522912206997
0.2090001106262207,car (1).jpg,0.07698394530820195,0.11730155257005126,0.11564797051524764,0.11546482032118086,0.11457354451102549,0.11338771741243808,0.11651928621760442,0.11517585696886265,0.11242064683683477,0.11694589161227842,0.10903431284836684,0.11801519906702031,0.10909712125028626,0.11114373637959199,0.1174805229879049,0.11608141554372496
0.2090001106262207,car (1).jpg,0.07692428850225073,0.11730506179393074,0.11565572657057363,0.11547539269630822,0.11457906539190595,0.11339352886599646,0.11652731049386388,0.1151819366433545,0.1124338343660634,0.11694157772559854,0.10902660149652976,0.11801799303507722,0.10913570036121611,0.11101221871521696,0.11748421102574003,0.1160701949680084
0.2090001106262207,car (1).jpg,0.07686921380391286,0.11730479357299728,0.11566046514039816,0.1154542926495424,0.11458472038325314,0.1133964122410312,0.11653218317415513,0.11518374713465537,0.11246725022402408,0.11694694214426782,0.10907286960755225,0.1180187529943887,0.10914102007639648,0.11109713299240268,0.11748521685424052,0.11605848265391382
0.21000003814697266,car (1).jpg,0.07698150896805632,0.11731094030272249,0.11565706767524095,0.11547360455675179,0.11458123351111811,0.11339596520614209,0.11652717638339714,0.1151848870736226,0.1124071240314393,0.1169458022053006,0.10900930124632136,0.11801897651183325,0.10909144390719461,0.11109138859407766,0.11748354047340637,0.11609113855256302
0.21000003814697266,car (1).jpg,0.07687679104528321,0.11730570999451995,0.11566229798344349,0.11546627318457045,0.11458362514777483,0.1133972616073205,0.11653236198811077,0.11518551292246734,0.11247357576770493,0.11694542222564486,0.10906962860460623,0.118022351625246,0.10916983147499937,0.11101606321526328,0.11748859196765327,0.11605432522944513
0.21000003814697266,car (1).jpg,0.07695875489220082,0.11731290725623456,0.11566290148054378,0.1154624957397575,0.1145870896681654,0.11340101670038899,0.11653303254044443,0.11518920096030247,0.11242914049972778,0.11695259713561501,0.1090429853252155,0.11802282101187957,0.10910291035210018,0.11115640981869815,0.1174870720490303,0.11608637763099404
0.21000003814697266,car (1).jpg,0.07695048474675235,0.11731241551785654,0.11566325910845507,0.11548245584755609,0.11458436275534185,0.11340081553468889,0.11653200436019949,0.11518817278005752,0.11243378966257449,0.11695007138849156,0.10902950722330895,0.11802691138111489,0.10912946422451308,0.1110233051804668,0.11749190002583265,0.11607768280240092
0.21000003814697266,car (1).jpg,0.07689212434197955,0.11731471774753544,0.11567088105331433,0.11546470856245858,0.11459350461882407,0.11340700696790301,0.11654027450564795,0.11519351484698234,0.11246720552053517,0.11695784979556201,0.10907521654072005,0.118030107680572,0.10913659443099433,0.11109290851270062,0.11749543160145659,0.11606771392437386
0.2109999656677246,car (1).jpg,0.07699744576185295,0.11732035038713817,0.1156669471462902,0.11548379695222341,0.11459033067111142,0.11340613524986926,0.11653542417710115,0.11519311251558215,0.11241273431929759,0.11695711218799498,0.10901801842665892,0.11802995121836081,0.10909759063691982,0.11110491139947312,0.11749420225551155,0.11610202385211275
0.2109999656677246,car (1).jpg,0.07688906215298917,0.11731842813711502,0.1156753961056943,0.11548115944637768,0.1145969914909591,0.11341058324701586,0.11654543775861713,0.1151979851958734,0.11248861849172336,0.11695999556302972,0.1090857442123585,0.11803688025914195,0.10918520947518462,0.11102987659333666,0.11750316530503813,0.11606896562206336
0.2109999656677246,car (1).jpg,0.0769603642178016,0.11732515601219606,0.1156760443062835,0.11547651028353098,0.11460072423228314,0.11341420422961762,0.11654673415979554,0.11520171793719744,0.1124494358836932,0.11696527057472117,0.10906220782544707,0.11803506976784107,0.1091244574337551,0.11118097438585453,0.11749970078464755,0.11609869344218891
0.2109999656677246,car (1).jpg,0.07695363634272055,0.11732457486684023,0.11567575373360559,0.11549711859191877,0.11459766204329276,0.11341353367728396,0.11654561657257277,0.1152013379575417,0.11245428621224,0.11696292364155336,0.10905007082820783,0.11803949541324323,0.10915490050970322,0.11105372590467047,0.1175045287614499,0.11609163029094104
0.21200013160705566,car (1).jpg,0.07690345667641839,0.1173244854598624,0.11568138637320832,0.11547628676608643,0.11460383112476243,0.11341684173546335,0.1165516068400868,0.11520529421631029,0.11249456405574847,0.11696779632184462,0.10910257507593335,0.11804014361383243,0.10916980912325491,0.11112690551601714,0.11750566870041712,0.11607783926461211
0.21200013160705566,car (1).jpg,0.07701928341618579,0.11733132509366573,0.11567807831502894,0.1154951069349178,0.11460081363926096,0.11341628294185196,0.11654695767724009,0.11520422133257643,0.11242896168577214,0.11696786337707799,0.10903726327863494,0.11804070240744381,0.1091124992504715,0.11113240404515315,0.11750472992715,0.11611438436679654
0.21200013160705566,car (1).jpg,0.07692008637429314,0.11732931343666475,0.11568583437035493,0.11549204474592742,0.11460566396780776,0.11342026155236501,0.11655397612499906,0.11520790937041156,0.11248913258184583,0.11696967386837887,0.10909524370375201,0.11804678208193566,0.10918619295194065,0.11103613508178414,0.11751270949992054,0.11608045441871338
0.21200013160705566,car (1).jpg,0.07699829512814226,0.11733738241641312,0.11568766721340026,0.11548750734180299,0.11461042488937674,0.11342475425300053,0.11655614424421122,0.11521135153905768,0.11244887709008182,0.11697680407486011,0.10907530594769788,0.11804691619240239,0.10912901718962398,0.11117862745268672,0.11751172602316451,0.11611103160512824
0.21300005912780762,car (1).jpg,0.07699404829669575,0.1173364883466349,0.11568684019885542,0.11550789213274623,0.11460698272073062,0.1134235696105444,0.11655487019477727,0.1152097422134569,0.11245701312506355,0.11697325014749171,0.10906415242721468,0.11805029130581514,0.10916688104473127,0.11106072200068498,0.11751579404065537,0.11610401315736928
0.21300005912780762,car (1).jpg,0.07692983173487565,0.11733742711990203,0.1156939033501033,0.11548864728077021,0.11461471642431216,0.11342864345653575,0.11656271565708108,0.115215441908293,0.11250055432326249,0.11697919571151683,0.10911625434354,0.11805230296281612,0.10918567886181818,0.11113725437369995,0.11751764923544517,0.11608912689556204
0.21300005912780762,car (1).jpg,0.0770387294338619,0.11734341738741605,0.11569037177447936,0.11550641691761218,0.11461165423532178,0.1134284646425801,0.1165585582326124,0.11521490546642607,0.11243734358994288,0.11698004507780613,0.10904792506074013,0.11805355466050561,0.1091305594599914,0.11116360708041276,0.11751709044183378,0.11612699075066933
0.21300005912780762,car (1).jpg,0.07692994349359793,0.11734022108795894,0.11569734551874941,0.11550319826641062,0.11461623634293512,0.11343190681122622,0.11656613547398274,0.11522004636765079,0.11250518113436474,0.11698190027259592,0.10910961587543677,0.11805963433499746,0.10921174099585307,0.11108801348066491,0.11752471238669304,0.11609256906420816
0.21399998664855957,car (1).jpg,0.0769993233083872,0.11734853593689631,0.11570009478331741,0.11549845969658609,0.11462200309300459,0.11343760650606233,0.11656901884901748,0.11522668483575402,0.11246993243335872,0.1169892092930328,0.10909367908164014,0.1180600143146532,0.10915371586724709,0.11123759135455982,0.11752395242738156,0.11612283332620064
0.21399998664855957,car (1).jpg,0.07699223780539487,0.11734878180608532,0.1157004524112287,0.11552137023465278,0.11462023730519262,0.11343787472699579,0.11656848240715055,0.11522657307703174,0.11246617734029023,0.116987108229054,0.10907452363664194,0.11806464112575545,0.10917734166113635,0.11110021753313751,0.11752884745941727,0.11611843003254295
0.21399998664855957,car (1).jpg,0.07692942940347545,0.11734795479154048,0.11570566036768679,0.11550006902218687,0.11462638403491783,0.11344162982006428,0.11657422680547556,0.11522836121658817,0.11250786334369937,0.11699258440644555,0.10912242342500966,0.11806562460251148,0.10919106563223191,0.11116347296994603,0.1175304344332736,0.11610204620385721
0.21399998664855957,car (1).jpg,0.0770462843234878,0.11735566614337756,0.11570277699265205,0.11551888919101824,0.11462490881978378,0.11344223331716458,0.11657125402346301,0.11522854003054381,0.1124403834271888,0.11699343377273486,0.10905154604334188,0.11806609398914504,0.10913116295709169,0.11118316485681115,0.1175297862326844,0.11614082648048717
0.21500015258789062,car (1).jpg,0.0769410076071033,0.11735305098927629,0.11570979544041102,0.115517011644484,0.1146292003547192,0.11344484847126585,0.11657869715436663,0.11523146810906745,0.11250942796581125,0.11699513250531346,0.10911359448594982,0.11807215131189243,0.10920539310042776,0.11107706112588181,0.11753805637813286,0.11610627068355926
0.21500015258789062,car (1).jpg,0.07701470130857245,0.11736080704460228,0.11571182944915645,0.11551066374905869,0.11463429655245501,0.11344882708177889,0.11658144641893463,0.11523616197540307,0.11247898488986312,0.11700087690363847,0.10910002697706545,0.11807092196594739,0.10914602686715447,0.11122176631948547,0.11753611177636525,0.11613407625366166
0.21500015258789062,car (1).jpg,0.07701575184056185,0.11736051647192436,0.1157108012689115,0.11553352958363647,0.11463105554950899,0.11344719540443365,0.11658086527357879,0.11523318919339051,0.11247467100318324,0.11699821704604829,0.10907521654072005,0.1180745653002936,0.10916384120748535,0.11108209026838425,0.11754089504967868,0.11613067878850446
0.21500015258789062,car (1).jpg,0.07694695317112842,0.11736212579752514,0.11571853497249304,0.11551495528399411,0.11464024211648012,0.11345378916904797,0.11659074474462804,0.11523982766149374,0.11251868158801574,0.11700785064790853,0.1091202553057975,0.11807954973930714,0.10918123086467157,0.11115851088267695,0.11754719824161508,0.11611583723018613
0.21600008010864258,car (1).jpg,0.07705582851837021,0.11737006066680677,0.11571558454222494,0.11553395426678112,0.11463883395657944,0.11345606904698241,0.11658844251494914,0.11524387332724015,0.11245039700870478,0.11700809651709754,0.10903051305180944,0.11807820863463982,0.1090979482648311,0.11119657590348433,0.11754478425321391,0.11615419282367144
0.21600008010864258,car (1).jpg,0.07694491916238298,0.11736643968420502,0.11572088190566085,0.11553140616791321,0.11464167262812526,0.11345841598015022,0.11659429867199643,0.11524499091446291,0.11252914220442083,0.11700950467699822,0.10907711643899876,0.11808359540505355,0.10916455646330792,0.1110782681200824,0.11755238384632871,0.11611787123893157
0.21600008010864258,car (1).jpg,0.07700853222710279,0.11737274287614141,0.1157211054231054,0.11552195138000862,0.1146454053694493,0.11346138876216277,0.1165956621284082,0.11524715903367508,0.11250793039893274,0.11701439970903393,0.1090598385405348,0.11808129317537465,0.10910085399161029,0.11122773423525503,0.1175493887125717,0.11614362044854408
0.21600008010864258,car (1).jpg,0.0770007761717768,0.11737115590228508,0.1157181549928373,0.11554358786864136,0.11464062209613586,0.11345863949759477,0.11659320343651812,0.1152442980103848,0.11251329481760201,0.11701323741832226,0.10903987843273621,0.11808685875974402,0.10913116295709169,0.11109878702149237,0.11755611658765275,0.11614375455901081
0.21700000762939453,car (1).jpg,0.07692238860397203,0.11737401692557536,0.11572758742899746,0.11552532649342137,0.11465152974743005,0.11346623909070958,0.11660404403257894,0.1152518976034996,0.11256448031240467,0.11702090406667043,0.10909734476773081,0.1180907703150237,0.10915876736149399,0.11116899385082649,0.11756040812258817,0.11612576140472429
0.21700000762939453,car (1).jpg,0.0770300793087577,0.11737951545471137,0.11572208889986144,0.11554168797036266,0.11464864637239532,0.1134657250005871,0.11659852315169848,0.1152520987691997,0.11248926669231256,0.11701907122362509,0.10901506799639082,0.11808817751266688,0.10908563245363623,0.11120746120303407,0.11755587071846374,0.1161652122336879
0.21700000762939453,car (1).jpg,0.07692022048475987,0.11737533567849823,0.11572705098713053,0.11553958690638386,0.11465126152649659,0.11346809428549937,0.11660458047444587,0.11525390926050058,0.11255122572794267,0.11702054643875914,0.1090665887673603,0.1180945701115811,0.1091594602655721,0.11108716411437561,0.1175636938290231,0.11612982942221516
0.21800017356872559,car (1).jpg,0.07698231363085671,0.11738237647800165,0.11572839209179785,0.11552919334521214,0.11465588833759884,0.11347198348903459,0.1166059662826021,0.11525744083612452,0.11251349598330211,0.11702564263649495,0.109049489682852,0.1180926702133024,0.10910060812242128,0.11124782845352035,0.11756011754991025,0.11615662916381707
0.21800017356872559,car (1).jpg,0.07698048078781138,0.1173813035942678,0.11572573223420766,0.1155530650082904,0.11465112741602985,0.11346977066633351,0.11660201002383351,0.115255451530868,0.11249921321859517,0.11702135110155953,0.10901924777260397,0.11809526301565922,0.10911643315749564,0.11110421849539501,0.11756293386971162,0.1161563609428836
0.21800017356872559,car (1).jpg,0.07690622829273085,0.1173802530622784,0.11573147663253268,0.11552981919405689,0.11465702827656606,0.11347301166927953,0.11660867084368119,0.11525851371985837,0.11255055517560901,0.11702629083708416,0.1090806480146227,0.11809649236160426,0.10915076543697899,0.11116434468797978,0.11756469965752359,0.11613414330889503
0.21800017356872559,car (1).jpg,0.07701615417196205,0.11738751737922637,0.1157280121121421,0.11554761118264331,0.11465553070968755,0.11347325753846854,0.11660460282619033,0.11525967601057005,0.1124689936600916,0.11702615672661743,0.10900109815610626,0.1180958218092706,0.10907503772676441,0.11121184214494731,0.1175620397999334,0.11617824330070535
0.21900010108947754,car (1).jpg,0.07690566949911946,0.11738387404488015,0.1157340694348895,0.11554718649949866,0.11465801175332209,0.11347484451232487,0.11661005665183742,0.1152596983623145,0.1125336572568008,0.11702669316848435,0.10905409414220979,0.11810223675992927,0.10915503462016996,0.11108007861138328,0.1175695946895593,0.11614049120432034
0.21900010108947754,car (1).jpg,0.07696805321789423,0.11739118306531704,0.11573686340294641,0.11553643531041566,0.11466384555862492,0.11347971719261613,0.11661262710244978,0.11526613566471763,0.11250278949770802,0.11703248227029828,0.10903840321760216,0.11810076154479522,0.1090958472008523,0.11125531628791288,0.11756639839010219,0.11616693331801096
0.2200000286102295,car (1).jpg,0.0769643651800591,0.11738899259436042,0.11573353299302257,0.11556140220897224,0.11465841408472228,0.11347661030013684,0.11660864849193674,0.11526403460073884,0.11249981671569546,0.1170287718807187,0.10901082116494432,0.1181040248994857,0.10912588794540024,0.1111225245741039,0.11757015348317068,0.1161681179604671
0.2200000286102295,car (1).jpg,0.0768805461383517,0.11738966314669408,0.1157420713594045,0.11553994453429514,0.11466789122437133,0.11348266762288423,0.11661855031473044,0.11526939901940811,0.1125587135623352,0.11703514212788846,0.10907409895349729,0.11810672946056479,0.10916625519588652,0.11117078199038291,0.11757381916926135,0.11614393337296645
0.2200000286102295,car (1).jpg,0.07698696279370341,0.11739496051012999,0.11573675164422413,0.11555585897634732,0.1146656560499258,0.11348157238740592,0.11661361057920581,0.11526814732171861,0.11247373222991612,0.11703384572671005,0.10898601072859893,0.11810431547216362,0.10908661593039226,0.11122375562474199,0.11756970644828157,0.11618754162639876
0.2200000286102295,car (1).jpg,0.07687571816154935,0.11739084778915021,0.11574285367046043,0.11555644012170316,0.11466798063134916,0.113484031079296,0.11661962319846429,0.11526989075778613,0.11254805178023002,0.11703518683137737,0.10904515344442767,0.11811133391992258,0.10917600055646903,0.11109248382955597,0.11757797659373004,0.11614838137011306
0.2200000286102295,car (1).jpg,0.07694038175825856,0.11739849208575392,0.11574560293502843,0.11554369962736363,0.1146734568087407,0.11348901551830953,0.11662172426244309,0.11527556810087777,0.11250247657328565,0.11703970188375734,0.10901669967373606,0.11810809291697656,0.10909417082001815,0.11125473514255704,0.11757317096867215,0.11617252125412479
0.2200000286102295,car (1).jpg,0.07694536619727209,0.11739504991710781,0.11573959031576996,0.11556775010439754,0.1146650078493366,0.11348260056765086,0.11661490698038422,0.11526859435660772,0.11249720156159419,0.11703337634007649,0.10899647134500401,0.11810918815245487,0.10912166346569818,0.11111271215828802,0.11757446736985055,0.11617238714365806
0.22300004959106445,car (1).jpg,0.07686966083880196,0.11739373116418494,0.11574783810947396,0.11554448193841957,0.1146721604075623,0.11348769676538667,0.11662357945723288,0.11527404818225481,0.11255583018730046,0.11704224998262525,0.10906846631389455,0.11811459727461306,0.1091640647249299,0.11117531939450734,0.11758065880306467,0.11614847077709088
0.43600010871887207,car (1).jpg,0.07699371302052892,0.11740311889685617,0.11574544647281725,0.11556383854911786,0.11467276390466259,0.11349051308518804,0.11662143368976517,0.11527874204859043,0.11246255635768847,0.11704124415412476,0.10897865700467313,0.1181118256583006,0.10907736230818776,0.11124411806394077,0.11757670254429609,0.11619587882708059
0.43600010871887207,car (1).jpg,0.07688620112969889,0.11739708392585324,0.11574891099320782,0.11556267625840619,0.11467327799478506,0.11349004369855448,0.11662518878283366,0.11527641746716707,0.11253933459989245,0.11704099828493575,0.10903945374959156,0.11811734653918106,0.10916933973662135,0.11108888519869867,0.11758407861996634,0.11615479632077173
0.43600010871887207,car (1).jpg,0.07695084237466364,0.11740537642304616,0.1157522190513872,0.11554870641812162,0.11468029644254403,0.11349547517245712,0.1166284744892686,0.1152817595340919,0.11250506937564246,0.11704636270360502,0.1090252827436069,0.11811488784729098,0.10910456438118987,0.11127136484043179,0.11758052469259794,0.11617898090827238
0.43600010871887207,car (1).jpg,0.07695978307244576,0.11740448235326795,0.11574877688274109,0.11557648963647957,0.11467479791340802,0.11349216711427773,0.11662349005025506,0.11527874204859043,0.11248785853241187,0.11704334521810356,0.1089894752489895,0.11811904527175966,0.10911401916909447,0.11111716015543463,0.11758412332345525,0.11618329479495225
0.43600010871887207,car (1).jpg,0.07688416712095346,0.11740479527769032,0.11575753876656757,0.11555203682804546,0.11468183871291145,0.11349764329166928,0.11663173784395907,0.11528227362421437,0.11255397499251067,0.11704967076178441,0.1090684439621501,0.11812248744040578,0.10916971971627709,0.11117308422006181,0.11758830309966839,0.11615363403006006
0.437000036239624,car (1).jpg,0.07689704172575972,0.1174068069346913,0.11575876811251261,0.11557083464513238,0.11468215163733382,0.11349849265795858,0.11663265426548174,0.11528424057772643,0.11253987104175937,0.11704920137515085,0.10904732156363983,0.11812715895499694,0.10918328722516146,0.11109594834994654,0.11759313107647074,0.11616134538189714
0.437000036239624,car (1).jpg,0.07696175002595783,0.11741635112957372,0.11576413253118188,0.11555762476415929,0.11469136055604941,0.11350542169873973,0.11663783987019537,0.11529132608071876,0.11251284778271291,0.11705570573278734,0.10904030311588087,0.11812557198114061,0.10913111825360278,0.11129378364012046,0.11759073943981402,0.11618564172812006
0.437000036239624,car (1).jpg,0.07697010957838411,0.11741364656849462,0.11575865635379033,0.11558576561042852,0.11468510206760192,0.11350063842542629,0.11663281072769292,0.11528783920858374,0.11255330444017701,0.11705773974153277,0.10908102799427843,0.1181312269724878,0.10918485184727333,0.1111917926301709,0.11759708733523933,0.11615964664931853
0.437000036239624,car (1).jpg,0.07701796466326293,0.11742084383020923,0.11576350668233713,0.11557762957544679,0.1146915617217495,0.11350644987898467,0.1166364764137836,0.11529349419993093,0.11245388388083981,0.11705615276767645,0.10899003404260088,0.11812785185907505,0.1090867947443479,0.11126841441016369,0.11759225935843698,0.11620937928073159
0.437000036239624,car (1).jpg,0.07691315733351199,0.11741523354235095,0.11576730647889454,0.11557914949406975,0.11469075705894911,0.11350595814060666,0.11663920332660714,0.11529154959816332,0.11252733171311995,0.1170557727880207,0.1090520377817199,0.11813384212658908,0.1091788168762704,0.11109726710286941,0.11759968013759614,0.11616662039358859
0.4380002021789551,car (1).jpg,0.07688649170237681,0.11741963683600865,0.11577195564174124,0.11558475978192803,0.11469621088459621,0.11351228368428751,0.11664517124237671,0.11529796454882199,0.1124974474307832,0.11706124896541226,0.10904475111302747,0.11813129402772117,0.10912282575640986,0.11128736868946179,0.11759643913465012,0.11618928506246627
0.4380002021789551,car (1).jpg,0.07700500065147885,0.11742504595816683,0.11576788762425037,0.11558095998537063,0.11469614382936284,0.11351107669008692,0.11664152790803049,0.11529803160405536,0.11246803253508002,0.11705465520079794,0.10899711954559321,0.11813153989691018,0.1091276537332122,0.11114306582725833,0.11759659559686131,0.11619431420496872
0.4380002021789551,car (1).jpg,0.07689049266463431,0.11741968153949756,0.11577394494699776,0.11556605137181894,0.1146982672450861,0.1135118366493984,0.11664622177436611,0.11529669049938804,0.11250406354714197,0.1170603772473785,0.10902740615933015,0.11813884891734706,0.10918377896353948,0.11112022234442501,0.11760457516963185,0.11617198481225786
0.4380002021789551,car (1).jpg,0.07693671607216788,0.11742611884190068,0.11577486136852043,0.11556752658695299,0.11470293875967726,0.11351798337912361,0.11664930631510094,0.11530299369132443,0.11247484981713889,0.1170637747125357,0.10901256460101183,0.11813377507135571,0.1091246585994552,0.11131186620138481,0.11759907664049585,0.1161923696032011
0.43900012969970703,car (1).jpg,0.07694326513329329,0.11742184965870972,0.11576659122307197,0.11559575684020004,0.11469395335840622,0.11351121080055365,0.11664043267255218,0.1152975622174218,0.11243926583996604,0.1170578738519995,0.10895384656832774,0.11813442327194491,0.10911752839297395,0.11116003080129991,0.11759921075096258,0.11620063974864957
0.43900012969970703,car (1).jpg,0.07685687564097353,0.11742100029242042,0.11577477196154261,0.11557090170036574,0.11470039066080935,0.1135164411087562,0.11664986510871232,0.11530087027560118,0.11251637935833685,0.11706491465150293,0.1090383361623688,0.11813869245513588,0.10917939802162624,0.1112008450866753,0.11760446341090958,0.11616717918719997
0.43900012969970703,car (1).jpg,0.07698240303783453,0.11742781757447929,0.1157701227986959,0.11558634675578436,0.11469893779741976,0.11351635170177837,0.11664521594586562,0.11530303839481335,0.11241436599664283,0.11706140542762344,0.10894419061472305,0.11813272453936631,0.1090804468489226,0.11130395368384763,0.11759646148639458,0.11621773883315788
0.440000057220459,car (1).jpg,0.07687185130975858,0.1174205085540424,0.11577182153127451,0.11558838076452979,0.1146959650154072,0.11351391536163274,0.1166461770708772,0.1152996632814006,0.11248244941025369,0.11706131602064562,0.10899745482176004,0.11813931830398063,0.10916614343716424,0.11112688316427269,0.11760406107950938,0.1161769692512714
0.440000057220459,car (1).jpg,0.07693119519128742,0.11742877869949087,0.11577649304586567,0.11557070053466564,0.11470392223643329,0.11352015149833578,0.11665174265524657,0.11530527356925888,0.11245645433145217,0.11706625575617025,0.10899110692633474,0.1181360325975457,0.10911352743071645,0.11132158921022287,0.11760037304167426,0.1161972199317479
0.440000057220459,car (1).jpg,0.0769490095316183,0.11742524712386693,0.11576860288007294,0.11559924371233507,0.1146955179805181,0.11351311069883235,0.11664315958537573,0.11530107144130128,0.11241821049668914,0.11706069017180087,0.10893828975418685,0.11813715018476846,0.10910925824752549,0.11117402299332893,0.11760117770447465,0.11620669707139696
0.440000057220459,car (1).jpg,0.07686174832126479,0.11742569415875603,0.11577888468252238,0.11557559556670136,0.1147037657742221,0.11351970446344667,0.11665341903608072,0.11530598882508145,0.11249382644818144,0.11706958616609409,0.10902852374655292,0.11814381100461614,0.10917027850988847,0.11119635238603978,0.11760891140805618,0.11617350473088082
0.440000057220459,car (1).jpg,0.0769930201164508,0.11743327140012638,0.11577486136852043,0.11559025831106404,0.11470302816665508,0.11351974916693558,0.116648524004045,0.11530672643264847,0.11239310948766583,0.1170647805410362,0.10894077079782138,0.1181364796324348,0.10906971801158405,0.11129713640178876,0.11760001541376297,0.11622283503089369
0.5310001373291016,car (1).jpg,0.07688783280704413,0.11742647646981197,0.11577743181913279,0.11559394634889916,0.1147006141782539,0.11351775986167906,0.11665015568139024,0.11530408892680274,0.11247263699443781,0.11706654632884816,0.10900574731895296,0.11814544268196138,0.10917490532099072,0.11112089289675867,0.11761036427144578,0.11618389829205254
0.5310001373291016,car (1).jpg,0.07694393568562695,0.11743494778096053,0.11578331032792454,0.11557640022950175,0.1147098678004584,0.11352544886177168,0.11665679414949347,0.11531112972630617,0.11245352625292852,0.11707063669808349,0.10900713312710919,0.11814144171970388,0.1091259550006336,0.11132281855616791,0.11760549159115452,0.11620171263238342
0.5320000648498535,car (1).jpg,0.07696979665396174,0.11742877869949087,0.11577363202257539,0.11560331172982594,0.11469967540498678,0.11351740223376777,0.116645774739477,0.11530406657505829,0.11241881399378943,0.1170639311747469,0.10895275133284943,0.11814130760923715,0.10911620964005109,0.11118499769985649,0.11760453046614294,0.11621154739994376
0.5320000648498535,car (1).jpg,0.07688725166168829,0.11742991863845809,0.1157840255837471,0.1155800212121035,0.1147077667364796,0.11352430892280446,0.11665576596924852,0.11530887220011618,0.11250384002969742,0.11707222367193981,0.10904604751420588,0.11814772255989582,0.10918561180658481,0.11120536013905527,0.11761186183832428,0.11617652221638229
0.5320000648498535,car (1).jpg,0.07700768286081348,0.11743678062400587,0.11578096339475673,0.11559475101169955,0.11470805730915752,0.11352562767572733,0.11665317316689171,0.11531224731352893,0.11241134851114136,0.11707043553238339,0.10896283196959877,0.11814314045228248,0.10909352261942895,0.11132769123645916,0.11760564805336571,0.11622811004258514
0.5320000648498535,car (1).jpg,0.07691820882775889,0.11743018685939155,0.11578239390640187,0.11559859551174587,0.1147048163062115,0.11352328074255952,0.11665404488492546,0.11530815694429361,0.11248052716023053,0.11706875915154924,0.1090198289179598,0.11814830370525166,0.10918836107115282,0.11114659740288227,0.11761221946623557,0.11618593230079798
0.5320000648498535,car (1).jpg,0.0769778656337101,0.1174386134670512,0.11578789243553787,0.11557975299117004,0.1147134664313157,0.11353043330078522,0.11665992339371721,0.11531557772345277,0.11246894895660269,0.117075129398719,0.10903321761288853,0.11814615793778395,0.10914325525084201,0.11135227815536,0.11760953725690093,0.11620361253066212
0.5329999923706055,car (1).jpg,0.0770130249277383,0.11743602066469438,0.11578035989765643,0.11560970432874015,0.11470604565215654,0.11352408540535991,0.11665174265524657,0.11531034741525023,0.11243378966257449,0.11706936264864953,0.1089817191936635,0.1181467837866287,0.10914430578283141,0.11121553018278243,0.11760982782957885,0.11621536954824561
0.5329999923706055,car (1).jpg,0.07692996584534238,0.11743535011236073,0.11578954646462757,0.11558536327902832,0.11471270647200422,0.11352982980368492,0.11666059394605087,0.11531430367401882,0.11252002269268306,0.11707904095399868,0.10908230204371239,0.11815489746986597,0.1092213745977133,0.11123148932832352,0.11761896969306107,0.11618029966119524
0.5329999923706055,car (1).jpg,0.07706092471610602,0.11744605659795482,0.11578905472624955,0.11560181416294743,0.11471541103308332,0.1135335401932645,0.11665853758556098,0.11531893048512107,0.11242151855486852,0.11707720811095335,0.10899468320544758,0.11815002478957472,0.10912325043955451,0.11135033355359239,0.11761224181798002,0.11623184278390918
0.5329999923706055,car (1).jpg,0.07696018540384596,0.11744033455137426,0.11579220632221775,0.1156082291136061,0.11471357819003798,0.11353282493744193,0.11666108568442889,0.11531674001416445,0.11249181479118046,0.11707861627085403,0.10904743332236211,0.11815842904548991,0.10921618899299967,0.11116680337986987,0.11762212128902927,0.11619337543170159
1.0380001068115234,car (1).jpg,0.0770067217358019,0.11744847058635599,0.11579799542403167,0.11558911837209682,0.11472296592270921,0.11354008925438991,0.11666792531823221,0.11532389257239015,0.11248148828524211,0.11708395833777885,0.10905621755793304,0.11815534450475508,0.10916983147499937,0.11135484860597236,0.11761879087910543,0.11620951339119832
1.0380001068115234,car (1).jpg,0.07693774425241283,0.11744212269093068,0.11579692254029782,0.11559296287214313,0.11472052958256358,0.11353678119621052,0.11666732182113192,0.11532125506654442,0.11243332027594093,0.11708219254996688,0.1090126763597341,0.11815525509777726,0.10914763619275525,0.11135455803329444,0.11761787445758276,0.11623378738567679
1.0390000343322754,car (1).jpg,0.07701825523594084,0.11745548903411496,0.11580586323807994,0.11559562272973331,0.11473014083267936,0.11354782295797144,0.11667460848982435,0.11533162627597168,0.11249968260522873,0.11709191555880494,0.10908373255535753,0.11816470988568185,0.10921229978946445,0.11138853268486651,0.11762764216990973,0.1162140284435783
1.0390000343322754,car (1).jpg,0.07704965943690055,0.1174544161503811,0.11580000708103265,0.11562733985511539,0.11472401645469861,0.11354310673989138,0.11666817118742122,0.11532887701140368,0.11246369629665569,0.11708617116047992,0.10903136241809874,0.11816522397580433,0.10920391788529371,0.11125945136063711,0.11762759746642082,0.1162287805949188
1.0400002002716064,car (1).jpg,0.07694885306940712,0.11745443850212556,0.11581055710441555,0.11560559160776038,0.11473204073095807,0.11354976755973906,0.11667858710033739,0.11533408496786177,0.11254749298661863,0.11709479893383967,0.1091230045703655,0.11817251064449676,0.10927555522627297,0.11126345232289461,0.11763597937059156,0.11619185551307863
1.0400002002716064,car (1).jpg,0.07707210058833368,0.11746074169406195,0.11580557266540202,0.11561676747998803,0.1147311243094354,0.11354972285625015,0.1166743849723798,0.11533529196206235,0.11244950293892657,0.11709202731752721,0.10903218943264359,0.11816596158337135,0.10917403360295697,0.11139047728663412,0.11762793274258765,0.11624272808345891
1.0400002002716064,car (1).jpg,0.07696242057829149,0.11745419263293655,0.11580729374972508,0.11562501527369204,0.11472859856231195,0.11354826999286055,0.11667612840844731,0.11533281091842781,0.1125145018118026,0.11709079797158217,0.10907738465993222,0.11817199655437428,0.10926214417959978,0.11119930281630788,0.11763524176302453,0.11620502069056281
1.0400002002716064,car (1).jpg,0.0769968199130082,0.11746065228708413,0.11581207702303851,0.11560395993041514,0.11473628756240457,0.11355457318479695,0.11668155988234995,0.11533788476441917,0.1125035494570195,0.117096385907696,0.10908386666582426,0.11816929199329519,0.10921855827791194,0.11138600693774306,0.11763206781531188,0.11621861055119163
1.0400002002716064,car (1).jpg,0.07703164393086957,0.11745944529288355,0.115805080927024,0.11563464887555228,0.11472991731523481,0.11354923111787213,0.11667454143459098,0.11533408496786177,0.11245710253204137,0.11709196026229385,0.10902105826390485,0.1181709907258738,0.10920429786494945,0.11125748440712505,0.11763323010602356,0.11623644724326697
1.0410001277923584,car (1).jpg,0.07692974232789783,0.11745808183647177,0.11581384281085048,0.11561234183458588,0.11473622050717121,0.11355361205978537,0.116683280966673,0.11533699069464096,0.1125488564430304,0.11709926928273073,0.10911636610226227,0.11817724921432128,0.10928565821476677,0.1112600101542485,0.11764107556832737,0.11619753285617028
1.0410001277923584,car (1).jpg,0.07698072665700038,0.11746847539764349,0.11581889430509738,0.1156119842066746,0.11474294838225226,0.11356223983314512,0.11668875714406456,0.1153445679360113,0.11250001788139556,0.11710389609383298,0.10906877923831693,0.11817682453117663,0.10919267495783269,0.11137635098413837,0.11763819219329263,0.11622384085939418
1.0410001277923584,car (1).jpg,0.07704431736997573,0.11747676789483641,0.11582012365104243,0.11563245840459566,0.1147454741293757,0.11356481028375748,0.1166902323591986,0.11534953002328038,0.1124416351248783,0.11710653359967871,0.1090259309441961,0.11818147369402333,0.10917888393150377,0.11137161241431384,0.11764243902473914,0.11625423923185339
1.0420000553131104,car (1).jpg,0.07695696675264439,0.11746974944707744,0.11582162121792093,0.11564016975643274,0.1147414731671182,0.11356266451628977,0.1166904335248987,0.11534628902033436,0.11249612867786034,0.11710599715781178,0.10906940508716167,0.11818887212143804,0.10926779917094698,0.11119337960402723,0.11765113385333226,0.11621854349595827
1.0420000553131104,car (1).jpg,0.0769993233083872,0.11747866779311511,0.11583002547383613,0.11562036611084534,0.11475206789399003,0.11357191813849427,0.11669859191162489,0.11535433564833827,0.11248922198882365,0.11711274738463728,0.10908022333147804,0.118187642775493,0.10923049410945107,0.1113773344608944,0.11764970334168712,0.11622927233329682
1.0420000553131104,car (1).jpg,0.07704349035543089,0.11747386216805722,0.11581976602313114,0.11564627178266904,0.11474216607119632,0.11356411737967936,0.11668743839114169,0.11534682546220129,0.11243843882542119,0.11710555012292267,0.10901634204582478,0.11818621226384786,0.10920595189403914,0.11127002373576447,0.1176475128707305,0.11624599143814938
1.0450000762939453,car (1).jpg,0.07694313102282656,0.11747381746456831,0.11583071837791424,0.11562695987545965,0.11475081619630054,0.11357062173731586,0.11669763078661331,0.11535335217158224,0.11252418011715175,0.11711466963466044,0.10910800654983599,0.11819466122325196,0.10928319952287668,0.1112634076194057,0.11765739234177974,0.11620931222549823
1.0460000038146973,car (1).jpg,0.07707368756219,0.11748246758967251,0.11582861731393544,0.11563737578837582,0.11475269374283478,0.11357314748443931,0.116696289681946,0.11535692845069509,0.11243345438640766,0.11711187566660353,0.10902836728434173,0.11818757572025963,0.10918581297228491,0.11140623526647511,0.11764934571377583,0.11625879898772228
1.0460000038146973,car (1).jpg,0.07698854976755974,0.11747383981631276,0.11582781265113505,0.11564506478846845,0.1147474857863767,0.11356874419078161,0.11669552972263451,0.11535183225295928,0.11248978078243503,0.11711044515495839,0.10906661111910476,0.11819387891219603,0.10926364174647829,0.11121955349678439,0.11765716882433519,0.11622551724022832
1.0460000038146973,car (1).jpg,0.07703032517794671,0.11748090296756064,0.11583431700877155,0.11562526114288105,0.11475689587079238,0.11357618732168523,0.11670230230120449,0.11535755429953984,0.11248220354106468,0.11711656953293914,0.10907626707270945,0.11819175549647278,0.10922012290002381,0.11140730815020897,0.1176546654289562,0.11623673781594489
1.0460000038146973,car (1).jpg,0.07707728619304731,0.11747956186289332,0.1158267844708901,0.11565628536418501,0.11474974331256668,0.11357158286232744,0.11669454624587848,0.11535690609895063,0.11243025808695055,0.11711089218984749,0.1090063284643088,0.11819126375809476,0.1091880704984749,0.11130312666930278,0.11765312315858878,0.11625752493828832
1.0470001697540283,car (1).jpg,0.07698709690417015,0.11747670083960304,0.11583431700877155,0.1156349394482302,0.1147546383446024,0.1135743544786399,0.11670118471398172,0.11535704020941737,0.11251997798919415,0.11711757536143963,0.10909569073864112,0.11819738813607551,0.10926062426097682,0.11128415003826023,0.11766087921391477,0.11621894582735846
1.0470001697540283,car (1).jpg,0.07711908395517873,0.1174857756478519,0.11583217124130384,0.11564544476812419,0.11475694057428129,0.11357641083912978,0.11670000007152559,0.1153609741164415,0.11243188976429579,0.11711464728291598,0.10901526916209092,0.11818972148772734,0.1091575603672934,0.11142418371727272,0.1176523631992773,0.11626841023783806
1.0470001697540283,car (1).jpg,0.07702788883780108,0.11747743844717007,0.1158309418953588,0.11565402783799503,0.1147516879143343,0.11357189578674981,0.1166971837517242,0.1153548720902052,0.11248607039285545,0.11711180861137016,0.10904859561307378,0.11819446005755187,0.10923120936527364,0.11123030468586739,0.11765848757725805,0.11623510613859965
1.0480000972747803,car (1).jpg,0.07705332512299122,0.1174822217204835,0.11583545694773877,0.11563105024469497,0.11475895223128227,0.11357694728099671,0.11670353164714953,0.11535918597688508,0.11248671859344465,0.11711811180330656,0.10906884629355029,0.11819285073195109,0.10920635422543934,0.11140375422284057,0.11765678884467945,0.11624511972011563
1.0480000972747803,car (1).jpg,0.07709992851018053,0.11748027711871589,0.11582707504356803,0.11566039808516479,0.114751084417234,0.11357122523441615,0.11669557442612342,0.1153550732559053,0.1124353319329419,0.1171121885910259,0.1090016793014621,0.11819180019996169,0.10918134262339385,0.11131537542526429,0.11765477718767847,0.11626651033955936
1.0490000247955322,car (1).jpg,0.07700003856420977,0.11747940540068214,0.11583715568031737,0.11564249433785609,0.11475892987953781,0.11357784135077492,0.11670567741461724,0.1153603259158523,0.1125216543700283,0.11711929644576269,0.10908918638100462,0.11819848337155382,0.10925394108938469,0.11129293427383116,0.11766293557440466,0.11622804298735177
1.0490000247955322,car (1).jpg,0.07712167675753555,0.11748564153738517,0.11583270768317076,0.11564942337863723,0.11475850519639316,0.11357793075775274,0.11670120706572618,0.115359722418752,0.1124321803369737,0.11711739654748399,0.10901314574636767,0.11819177784821723,0.10915463228876976,0.11142375903412807,0.1176549112981452,0.11627663567979761
1.0490000247955322,car (1).jpg,0.07703457200939322,0.11747998654603797,0.11583391467737135,0.11566106863749845,0.11475551006263615,0.11357562852807385,0.11670125176921509,0.11535679434022836,0.11247851550322956,0.1171168377538726,0.10904770154329557,0.11819870688899838,0.10922857185942791,0.11123332217136886,0.11766293557440466,0.1162452314788379
1.0500001907348633,car (1).jpg,0.07706675852140886,0.11748834609846426,0.11584055314547458,0.115640035645966,0.11476429429820709,0.11358246816187717,0.11670753260940703,0.11536289636646466,0.11247668266018422,0.11712475027140978,0.1090671922644606,0.118198393964576,0.10919517835321169,0.11139005260348947,0.11766257794649337,0.11625350162428637
1.0500001907348633,car (1).jpg,0.0771096962225075,0.11748754143566387,0.11583420525004927,0.1156696964108582,0.11475899693477118,0.11357777429554156,0.11670062592037034,0.11536075059899695,0.11244319974699017,0.11711820121028438,0.10902000773191545,0.11819729872909769,0.10919287612353279,0.11131284967814084,0.11766099097263705,0.11627357349080723
1.0529999732971191,car (1).jpg,0.07698099487793385,0.11748219936873905,0.1158408884216414,0.11564837284664783,0.11476380255982907,0.11358054591185401,0.11670777847859604,0.11536428217462089,0.11253667474230226,0.11712445969873186,0.10911413092781674,0.11820340075533399,0.10928266308100976,0.11129653290468847,0.11766892584191868,0.1162323792257761
1.0529999732971191,car (1).jpg,0.07708562339372914,0.11749096125256553,0.11583956966871854,0.11565717943396323,0.11476702121103063,0.11358376456305558,0.1167080466995295,0.11536817137815611,0.11245542615120722,0.11712441499524295,0.10904405820894936,0.11819870688899838,0.10919904520500245,0.11144946354025168,0.11766300262963802,0.11628153071183332
1.0529999732971191,car (1).jpg,0.07699259543330615,0.11748488157807369,0.11584077666291913,0.11566871293410216,0.11476389196680689,0.11358237875489935,0.11671030422571949,0.11536660675604424,0.1125052481895981,0.11712215746905297,0.10907901633727746,0.11820422776987884,0.10928121021762016,0.11126644745665162,0.11766957404250789,0.11624956771726223
1.0540001392364502,car (1).jpg,0.07700439715437855,0.11748848020893099,0.11584491173564336,0.11564383544252341,0.11476994928955428,0.1135872514351906,0.11671457340891045,0.11537025009039045,0.11251465827401379,0.11712888534413401,0.10910840888123619,0.11820333370010062,0.10925984194992089,0.11143746065347918,0.11766832234481839,0.11625560268826517
1.068000078201294,car (1).jpg,0.07694588028739456,0.1174860215170409,0.11584620813682177,0.11565407254148394,0.11476943519943181,0.11358682675204596,0.11671513220252183,0.11536870782002304,0.11254977286455307,0.11712953354472322,0.1091333087245594,0.11820896633970336,0.10931724122968212,0.11131761059970982,0.11767377617046548,0.11623528495255529
1.068000078201294,car (1).jpg,0.07698539817159154,0.11749011188627623,0.115845090549599,0.11567293741380422,0.1147675353011531,0.1135872514351906,0.1167137463943656,0.1153700265729459,0.11252033561710544,0.11712825949528927,0.1090985517619314,0.1182107991827487,0.10931442490988075,0.11128339007894875,0.11767536314432181,0.11625388160394211
1.069000005722046,car (1).jpg,0.07699804925895325,0.11749659389216827,0.11585177372119114,0.11565047391062663,0.11477638659195741,0.11359431458643848,0.1167211001182914,0.11537615095092665,0.11252920925965419,0.11713465209420348,0.10912327279129896,0.11820981570599266,0.1092931460491593,0.11144883769140693,0.11767384322569885,0.11625817313887753
1.069000005722046,car (1).jpg,0.07705430859974725,0.11749599039506797,0.1158433918170204,0.11567816772200676,0.11476909992326498,0.11358881605730248,0.11671303113854303,0.1153723735061137,0.11247435807876087,0.11712895239936738,0.10904832739214032,0.11820854165655871,0.10925943961852069,0.11135873780950759,0.11767102690589748,0.11628027901414383
1.069000005722046,car (1).jpg,0.07694067233093647,0.11749301761305542,0.1158507902444351,0.11565896757351965,0.1147738384930895,0.11359312994398235,0.11672098835956912,0.11537460868055924,0.11255585253904492,0.11713541205351496,0.10913272757920356,0.11821513542117303,0.10933583788106893,0.11131863877995476,0.11767840298156775,0.11623825773456785
1.069000005722046,car (1).jpg,0.07705985183237217,0.11750191360734863,0.11584875623568967,0.1156646449166113,0.1147756936878793,0.11359619213297273,0.1167192002200127,0.11537760381431625,0.11247460394794988,0.11713606025410417,0.10906623113944902,0.1182105980170486,0.10924430748752445,0.11147058593876194,0.11767198803090906,0.11628617987468003
1.069000005722046,car (1).jpg,0.07698381119773522,0.11749742090671311,0.11585049967175719,0.11567785479758438,0.11477260914714446,0.11359478397307204,0.11671973666187963,0.11537700031721596,0.11252225786712859,0.11713518853607041,0.10909995992183208,0.1182179517409744,0.10931985638378339,0.11128647461968358,0.11768016876937971,0.11625721201386595
1.070000171661377,car (1).jpg,0.07700341367762252,0.11750560164518375,0.1158593956660504,0.11565615125371828,0.11478344974320528,0.11360298706328714,0.1167284538422172,0.11538383995101928,0.11253602654171306,0.11714509035886411,0.109137510852517,0.11822061159856458,0.10930653474408802,0.1114474518832507,0.11768298508918108,0.11626355990929126
1.070000171661377,car (1).jpg,0.07706897134410993,0.11750908851731878,0.11585561822123745,0.11568744369595571,0.11478067812689283,0.11360113186849735,0.11672409525204841,0.11538491283475313,0.11248835027078989,0.11714182700417364,0.10907825637796598,0.11822186329625407,0.10929062030203585,0.11137201474571404,0.1176836779932592,0.11629038200263762
1.070000171661377,car (1).jpg,0.07695859842998963,0.11750524401727247,0.11586286018644097,0.1156682435474686,0.11478550610369517,0.11360370231910971,0.11673301359808608,0.11538661156733174,0.11257804782128904,0.11714611853910906,0.10916904916394343,0.11822657951433414,0.10937647335248868,0.11132563487596928,0.11769040586834024,0.11624670669397195
1.070000171661377,car (1).jpg,0.07707891787039255,0.11751505643308835,0.11586165319224039,0.11567405500102698,0.11478856829268555,0.11360694332205573,0.11673189601086331,0.11538884674177727,0.11249807327962795,0.11714737023679855,0.10910199393057751,0.11822204211020972,0.1092756893367397,0.11147253054052955,0.11768479558048196,0.11629487470327314
1.070000171661377,car (1).jpg,0.077004173636934,0.11750861913068522,0.11586118380560682,0.11568668373664423,0.11478385207460548,0.11360412700225436,0.1167314042724853,0.11538567279406461,0.11254624128892914,0.1171456491524755,0.10913549919551602,0.11822825589516829,0.10934585146258491,0.11128573701211655,0.11769226106313004,0.11626615271164807
1.071000099182129,car (1).jpg,0.07700707936371319,0.11751639753775567,0.1158709962214227,0.11566600837302307,0.11479525146427769,0.11361378295585906,0.11674251308947958,0.11539441232614664,0.11256488264380486,0.11715590860318048,0.10917103846919995,0.11823075929054729,0.10933100990426659,0.11145319628157571,0.11769521149339814,0.11627138301985061
1.071000099182129,car (1).jpg,0.07707102770459982,0.11751679986915586,0.11586362014575245,0.1156949985855816,0.11478930590025258,0.1136101619732573,0.11673609813882091,0.11539222185519002,0.11250989735244481,0.11715099121940031,0.1090935449711734,0.11822917231669096,0.10928965917702427,0.11138386117027535,0.11769346805733062,0.11629675224980739
1.071000099182129,car (1).jpg,0.07695893370615646,0.1175144305842436,0.11587186793945646,0.1156785477016625,0.1147952961677666,0.11361492289482628,0.11674524000230313,0.11539628987268089,0.11260860265595944,0.11715892608868195,0.10917553116983547,0.11823699542725032,0.10936775617215111,0.11133605078888545,0.11770374985978006,0.11625522270860943
1.071000099182129,car (1).jpg,0.0770801919198265,0.11752397477912602,0.1158699009859444,0.11568366625114276,0.11479809013582351,0.11361773921462764,0.11674472591218066,0.11539957557911582,0.11253899932372562,0.11715957428927115,0.10909917761077614,0.11823156395334768,0.10926236769704434,0.11149383175299546,0.11769735726086585,0.11630182609579874
1.071000099182129,car (1).jpg,0.07700842046838051,0.11751916915406813,0.11586958806152202,0.1156975019809606,0.11479361978693245,0.11361492289482628,0.11674443533950274,0.11539584283779178,0.1125886201964164,0.11715854610902621,0.10911721546855158,0.11823833653191763,0.10932291857277376,0.11130560771293732,0.1177053815371253,0.11627609923793068
1.071000099182129,car (1).jpg,0.07701170617481544,0.11752562880821571,0.11587696413719227,0.11567409970451589,0.11480318633355932,0.11362254483968554,0.1167531078163514,0.11540346478265104,0.11260942967050429,0.11716516222538498,0.10914647390204357,0.11823742011039497,0.10930175147077459,0.11146971422072818,0.11770437570862481,0.11627752974957582
1.071000099182129,car (1).jpg,0.07700336897413361,0.11752580762217135,0.11587220321562329,0.11570286639962987,0.11479916301955737,0.1136211143280404,0.11674892804013826,0.11540076022157195,0.11254677773079606,0.11716066952474946,0.10906198430800251,0.11823692837201695,0.10925302466786202,0.11139034317616739,0.11770254286557948,0.11630687759004564
1.0720000267028809,car (1).jpg,0.076961414749791,0.11752332657853681,0.11587586890171396,0.11568487324534335,0.1148022475602922,0.11362187428735188,0.1167531078163514,0.11540281658206183,0.11263021679284772,0.11716516222538498,0.1091419588496636,0.11824242690115296,0.10932280681405149,0.11132798180913708,0.11770882370577142,0.11626400694418036
1.0720000267028809,car (1).jpg,0.07708095187913798,0.11753159672398528,0.11587247143655675,0.11568746604770017,0.11480343220274833,0.11362341655771929,0.11675006797910548,0.11540424709370697,0.11258354635042504,0.11716482694921815,0.10909206975603936,0.11824405857849819,0.10929730347362798,0.11130243376522467,0.1177089354644937,0.11628707394445824
1.0720000267028809,car (1).jpg,0.07698289477621255,0.1175295850669843,0.11587908755291552,0.11567917355050725,0.1148083495865285,0.1136285127554551,0.11675737699954236,0.11540829275945338,0.11259613038255338,0.11717153247255474,0.10912318338432114,0.11824370095058691,0.10927689633094029,0.11145531969729897,0.11770779552552647,0.1162877444967919
1.1190001964569092,car (1).jpg,0.0770559849805814,0.1175319320001521,0.11587260554702349,0.11570874490842162,0.11480345455449278,0.1136249141245978,0.11675026914480557,0.11540599052977449,0.11253204793120002,0.1171680008969308,0.10904446054034955,0.11824421504070938,0.1092384289787327,0.11137981550452894,0.11770696851098163,0.11631912634600715
1.1190001964569092,car (1).jpg,0.07694053822046974,0.11752971917745103,0.11588176976225016,0.11569443979197022,0.11480989185689591,0.11362978680488905,0.11675967922922126,0.11541008089900981,0.11262275131019965,0.11717356648130017,0.109132504061759,0.11825118878497944,0.10932553372687503,0.11132194683813415,0.11771505984247445,0.11627636745886415
1.1190001964569092,car (1).jpg,0.077062690503918,0.11753827989557741,0.11588036160234948,0.11569736787049387,0.11481252936274164,0.11363300545609062,0.11675791344140929,0.11541497593104552,0.11254570484706221,0.11717604752493471,0.10907126028195147,0.11824774661633332,0.10923574676939807,0.11149521756115169,0.11771009775520537,0.11632453546816533
1.1190001964569092,car (1).jpg,0.07699802690720879,0.11753604472113188,0.11588286499772847,0.11571636685328088,0.11481105414760759,0.11363282664213498,0.11675972393271017,0.11541408186126731,0.11258524508300365,0.11717378999874473,0.10909113098277223,0.11825342395942497,0.10930691472374376,0.11130408779431436,0.11771671387156414,0.11629925564518638
1.1190001964569092,car (1).jpg,0.07699107551468319,0.11753852576476642,0.11588746945708626,0.11568896361457867,0.11481733498779953,0.11363682760439248,0.11676513305486835,0.1154167864223464,0.11261021198156022,0.11718047317033686,0.10913388986991523,0.11825322279372487,0.10930130443588548,0.11145022349956316,0.11771631154016395,0.11629672989806293
1.1190001964569092,car (1).jpg,0.07706704909408678,0.11754297376191303,0.11588346849482876,0.11571951844924908,0.11481465277846489,0.11363528533402506,0.11676039448504383,0.11541555707640136,0.11254744828312972,0.11717881914124717,0.10905934680215679,0.11825536856119258,0.10926071366795465,0.1113828329900304,0.11771709385121988,0.11632931874147877
1.1200001239776611,car (1).jpg,0.07695540213053252,0.11754129738107888,0.11589316915192237,0.11570507922233095,0.11482082185993456,0.11364062740094988,0.11676967045899278,0.11542083208809281,0.1126406774092528,0.11718358006281615,0.10915127952710146,0.11826167175312897,0.10935009829403142,0.11132049397474456,0.11772462638910132,0.11628403410721232
1.1200001239776611,car (1).jpg,0.07707129592553329,0.11754970163699408,0.11589169393678832,0.11570617445780926,0.11482341466229137,0.11364377899691808,0.11676848581653665,0.1154253918439617,0.11256320626297071,0.11718523409190584,0.10908947695368254,0.11825726845947128,0.10926024428132108,0.11149005430818251,0.11771899374949858,0.11632963166590114
1.2090001106262207,car (1).jpg,0.07700419598867846,0.11754500777065846,0.11589162688155495,0.11572264769347282,0.11481934664480051,0.11364138736026136,0.11676759174675844,0.11542273198637151,0.11259680093488704,0.11718393769072744,0.109105503154457,0.11826415279676351,0.10932524315419712,0.11129154846567493,0.11772679450831348,0.11630613998247862
1.2090001106262207,car (1).jpg,0.07700079852352125,0.1175510427416614,0.11590009819270351,0.11569826194027208,0.11482873437747174,0.1136483164010425,0.11677608540965145,0.11542776112887396,0.11262141020553233,0.117192409001876,0.10915309001840234,0.11826589623283103,0.10931996814250566,0.11144045578723619,0.11772835913042536,0.1163039942150109
1.2090001106262207,car (1).jpg,0.07708372349545044,0.11755441785507414,0.11589515845717889,0.11572720744934172,0.11482511339486998,0.11364637179927489,0.11677065393574881,0.11542894577133009,0.11256014407398034,0.11718851979834077,0.10908431370071336,0.1182655609566642,0.10928058436877541,0.11139771925183764,0.11772690626703576,0.11633542076771507
1.2090001106262207,car (1).jpg,0.0769706683719955,0.11755216032888416,0.11590452383810566,0.11571332701603496,0.114831103662384,0.11365104331386605,0.11677948287480866,0.11543245499520957,0.1126534849588257,0.1171941077344546,0.10917803456521447,0.11827324995675682,0.10937338881175385,0.11132885352717084,0.11773611518575135,0.1162908960927601
1.2090001106262207,car (1).jpg,0.07708441639952855,0.11756036341909926,0.11590309332646052,0.11571368464394624,0.11483398703741873,0.11365365846796732,0.11677867821200827,0.11543621008827806,0.11257762313814439,0.11719594057749994,0.10911705900634039,0.11826884666309913,0.1092813890315758,0.11149396586346219,0.11773028138044851,0.11633613602353764
1.2090001106262207,car (1).jpg,0.07701993161677499,0.11755582601497483,0.11590322743692726,0.11573154368776604,0.11483023194435024,0.1136512668313106,0.11677820882537471,0.11543296908533204,0.11261376590892862,0.11719372775479886,0.1091373096868169,0.11827503809631325,0.10934772900911915,0.11130348429721407,0.11773714336599629,0.11631349370640441
1.2100000381469727,car (1).jpg,0.07701032036665921,0.11756217391040014,0.11591297279750977,0.11570827552178806,0.11484067020901087,0.11366036399130391,0.11678703776443455,0.1154409933615915,0.11263920219411876,0.11720369663282593,0.10918185671351632,0.11827825674751481,0.10934303514278354,0.11144783186290644,0.11773998203754212,0.11631181732557026
1.2100000381469727,car (1).jpg,0.07701852345687431,0.11757180751226037,0.11592296402728129,0.11571866908295977,0.11485052732831566,0.1136701764071198,0.11679689488373934,0.11545091753612965,0.11256752014965059,0.11719739344088953,0.10909982581136535,0.11827523926201335,0.10929307899392593,0.11139371828958014,0.1177356905026067,0.11634306506431878
1.2100000381469727,car (1).jpg,0.07696782970044967,0.11756123513713301,0.11591413508822145,0.11572231241730599,0.11484031258109959,0.11366096748840421,0.11678828946212405,0.1154411945272916,0.1126557871885046,0.11720423307469285,0.1091863717658963,0.11828415760805101,0.109380563721724,0.1113099215996172,0.11774608406377841,0.11630057439810924
1.7060000896453857,car (1).jpg,0.0770820918181052,0.11757205338144938,0.11591558795161104,0.11572483816442945,0.11484583346198005,0.1136661754448623,0.11678904942143553,0.11544722949829453,0.1125838145713585,0.11720599886250482,0.1091331075588593,0.11827982136962668,0.10929292253171474,0.11147952663654406,0.11774027261022003,0.11634541199748659
1.7060000896453857,car (1).jpg,0.07702833587269019,0.11756740421860268,0.11591523032369976,0.1157437700919831,0.11484158663053354,0.11366340382854984,0.11678842357259078,0.11544470375117108,0.11263634117082848,0.11721192207478548,0.10919723471370157,0.11828717509355248,0.10936482809362746,0.11143464433367781,0.1177487439213686,0.11631970749136299
1.7060000896453857,car (1).jpg,0.07710323656835992,0.11757482499776184,0.11591699611151172,0.11574694403969575,0.11484674988350271,0.11366756125301852,0.1167903681743584,0.1154494423209956,0.11255987585304687,0.1172071611532165,0.10911652256447346,0.11828527519527378,0.10931151918310156,0.11138497875749812,0.11774550291842258,0.11635339157025713
1.7060000896453857,car (1).jpg,0.07710220838811498,0.11758045763736458,0.11592502038777118,0.11573333182732247,0.11485540000860692,0.11367471381124422,0.11679754308432855,0.11545431500128686,0.11258432866148098,0.11721480544982021,0.10915411819864729,0.1182887620674088,0.1093150954622144,0.11147351401728559,0.11774921330800216,0.1163528551283902
1.7060000896453857,car (1).jpg,0.07704684311709918,0.11757777542802994,0.11592593680929385,0.11575416365315482,0.11485202489519417,0.11367350681704363,0.11679767719479528,0.11545447146349805,0.11257257164389749,0.11721929815045573,0.10912959833497982,0.11829754630297974,0.10931804589248251,0.11137820617892816,0.11775730463949498,0.11636450038725142
1.7060000896453857,car (1).jpg,0.07699518823566297,0.11758318455018812,0.11593706797803259,0.11574573704549516,0.11486268667729935,0.1136826263287814,0.11680905423272303,0.11546285336766879,0.11266714187468789,0.11722390260981352,0.10921592077206621,0.11830469886120544,0.10941355489654003,0.11129309073604235,0.1177664465029772,0.11631968513961853
1.7060000896453857,car (1).jpg,0.07710752810329534,0.11759306402123737,0.11593724679198823,0.11574537941758388,0.1148675146541017,0.11368656023580553,0.1168097694885456,0.11546634023980382,0.11259474457439715,0.11722593661855896,0.10916098018419507,0.11830004969835874,0.10932291857277376,0.11146835076431641,0.11776052329069654,0.116362712247695
1.7060000896453857,car (1).jpg,0.07704780424211076,0.11758812428571275,0.11593548100417626,0.11576583126376049,0.11486248551159925,0.11368305101192605,0.11680784723852244,0.11546408271361383,0.1126193761967869,0.11722430494121372,0.10916855742556542,0.11830650935250632,0.10938002727985707,0.11129139200346375,0.11776787701462234,0.11634523318353095
1.7060000896453857,car (1).jpg,0.07702364200635457,0.11759375692531548,0.11594542753045887,0.11574233958033796,0.1148732143489378,0.11369158937830798,0.11681846431713871,0.11547148114102854,0.11265601070594915,0.1172328656593401,0.10922611316753783,0.1183089680443964,0.10938903503287256,0.11142527895275103,0.11777058157570143,0.1163379018113496
1.7070000171661377,car (1).jpg,0.07711101497543037,0.11759773553582853,0.11593983959434505,0.11577025690916264,0.1148700627529696,0.11368975653526264,0.11681274227055816,0.1154715481962619,0.112587815533616,0.11724169459839995,0.10915999670743903,0.11832081446895772,0.10934969596263122,0.11141329841772299,0.11777979049441702,0.11638475106772793
1.7070000171661377,car (1).jpg,0.07699874216303136,0.11759621561720557,0.11594922732701628,0.1157602209759022,0.11487594126176134,0.11369498684346518,0.11682186178229592,0.11547521388235257,0.11266810299969947,0.11724330392400073,0.10924374869391307,0.11832003215790178,0.10941011272789392,0.11143258797318792,0.11778097513687315,0.11634563551493114
1.7070000171661377,car (1).jpg,0.07710453296953833,0.11760473163184304,0.1159487132368938,0.11575778463575657,0.1148795175408742,0.11369775845977764,0.11682150415438464,0.11547798549866503,0.11260312647856789,0.11723758187742017,0.10918009092570435,0.11831203023338678,0.10934339277069482,0.11148453342730205,0.11777257088095795,0.11637209998036623
1.7070000171661377,car (1).jpg,0.07705656612593724,0.11759947897189604,0.11594650041419273,0.11577770004006625,0.11487350492161572,0.1136940257184536,0.11681906781423901,0.11547545975154158,0.11262831689456902,0.11723443028145197,0.10918760111184134,0.11831721583810041,0.10940070264347823,0.11130730644551592,0.11777811411358287,0.11635426328829089
1.7070000171661377,car (1).jpg,0.07712272728952495,0.11761660040814881,0.11596031379226611,0.11576891580449532,0.11489069341310185,0.11370947077387222,0.11683216593648982,0.11548936253659278,0.1126042217140462,0.11724960711593713,0.10919086446653181,0.11832483778295967,0.10935141704695428,0.1114940105669511,0.11778423849156362,0.11638180063745983
1.7070000171661377,car (1).jpg,0.0770685913644542,0.11761201830053547,0.11595935266725453,0.1157903287756835,0.11488593249153287,0.11370716854419333,0.11683140597717834,0.11548770850750309,0.11262666286547933,0.11724665668566903,0.10920056512362541,0.1183300233876733,0.1094151195186519,0.11131790117238774,0.11778989348291082,0.11636523799481845
1.7070000171661377,car (1).jpg,0.07714080985078929,0.1176210037018065,0.11596292894636738,0.11579126754895062,0.11489160983462451,0.11371239885239587,0.11683366350336832,0.11549202239418296,0.11257650555092162,0.11725047883397088,0.10916750689357602,0.11833009044290667,0.10935868136390225,0.11141629355148,0.11778828415731003,0.11639264123352065
1.7070000171661377,car (1).jpg,0.07702516192497753,0.11761554987615941,0.11596923213830378,0.11577986815927842,0.11489438145093697,0.11371420934369675,0.116840324323216,0.11549398934769503,0.11266506316245355,0.11725722906079639,0.10925371757194013,0.11834021578314492,0.10946301930701963,0.11133028403881598,0.11780008587838244,0.11635053054696685
1.7070000171661377,car (1).jpg,0.0771273988041161,0.11762824566701002,0.11597350132149474,0.11578031519416752,0.1149029198173189,0.11372247948914521,0.11684524170699617,0.11550322061815507,0.11260064543493335,0.11726064887769805,0.10920595189403914,0.11833648304182089,0.10937452875072107,0.11151314366020484,0.11779525790158009,0.11639141188757561
1.7080001831054688,car (1).jpg,0.0770854445797735,0.117622255399496,0.11596965682144843,0.11580020824673275,0.11489610253526003,0.11371677979430911,0.11684023491623818,0.1154962021703961,0.11262103022587659,0.11725597736310689,0.10920791884755121,0.1183401263761671,0.10942841880660281,0.11132250563174553,0.11779943767779323,0.11637545274203452
1.7080001831054688,car (1).jpg,0.07704990530608956,0.11762576462337548,0.11597853046399718,0.11577486136852043,0.1149052220469978,0.11372382059381253,0.11684948853844268,0.11550337708036626,0.11265931876412853,0.11726413574983308,0.10926567575522372,0.11834254036456827,0.10944527202192211,0.1114529504123867,0.11780169520398322,0.11636414275934014
1.7080001831054688,car (1).jpg,0.07714697893225896,0.11762918444027715,0.11597222727206079,0.11579991767405483,0.11490059523589555,0.11372160777111145,0.11684269360812827,0.11550268417628815,0.11257465035613183,0.11726194527887646,0.10917633583263586,0.1183422274401459,0.10937674157342214,0.11144217687155925,0.11779966119523778,0.11640551583832691
1.7080001831054688,car (1).jpg,0.07702469253834397,0.11762741865246518,0.11598168205996538,0.1157928321710625,0.11490638433770947,0.11372645809965826,0.11685185782335494,0.11550601458621199,0.11266077162751813,0.11726511922658911,0.10925689151965279,0.11834895531522695,0.10947128945246809,0.11133904592264246,0.11780804309940852,0.11636108057034976
1.7080001831054688,car (1).jpg,0.07711378659174283,0.11763602407408047,0.11598226320532122,0.11578914413322737,0.11491087703834499,0.1137304367101713,0.11685299776232216,0.11551046258335859,0.11259490103660834,0.1172694778167579,0.10920946111791863,0.11834604958844776,0.10938451998049259,0.1115222184684537,0.11780352804702855,0.11640198426270297
1.7080001831054688,car (1).jpg,0.07707721913781394,0.11763115139378921,0.11597944688551985,0.11581129471198258,0.11490457384640859,0.1137266369136139,0.11684886268959793,0.1155071098216903,0.11260509343207996,0.11726368871494397,0.10920288970504877,0.11834819535591547,0.10942911171068093,0.11134076700696552,0.11780600909066309,0.11638604746890634
1.7080001831054688,car (1).jpg,0.07703946704142893,0.11763119609727812,0.11598445367627784,0.11578263977559088,0.1149105194104337,0.11373021319272675,0.11685516588153433,0.11551014965893622,0.11264525951686614,0.11727017072083601,0.10926004311562099,0.1183489776669714,0.1094483789144014,0.11145172106644166,0.11780723843660813,0.11637194351815504
1.7080001831054688,car (1).jpg,0.07713989342926662,0.11763711930955878,0.11597975980994223,0.11580957362765952,0.11490857480866609,0.11372981086132655,0.11685051671868762,0.11551086491475879,0.11256083697805845,0.11726871785744641,0.10917014439942174,0.11834891061173804,0.10937877558216758,0.11143982993839144,0.11780569616624072,0.1164147694605314
1.7080001831054688,car (1).jpg,0.07702189857028706,0.11763363243742375,0.11598724764433475,0.11580132583395551,0.11491244166045686,0.11373269423636129,0.11685740105597986,0.11551211661244828,0.11264715941514485,0.11727108714235868,0.10924996247887164,0.11835501263797434,0.10947196000480175,0.11131783411715437,0.11781313929714433,0.11636939541928713
1.7080001831054688,car (1).jpg,0.07712350960058088,0.1176428637078838,0.11598849934202425,0.11579649785715317,0.11491758256168158,0.11373678460559661,0.11685914449204737,0.11551654225785044,0.1125859156353373,0.11727555749124974,0.10920981874582991,0.11835230807689524,0.10938925855031711,0.111504560590334,0.11780891481744228,0.11640956150407332
1.7080001831054688,car (1).jpg,0.07708915496935308,0.11763841571073719,0.1159857724292007,0.1158185366771861,0.11491130172148964,0.11373269423636129,0.11685505412281205,0.11551289892350422,0.11260236651925641,0.11727224943307035,0.10920680126032845,0.11835693488799749,0.1094399746584862,0.11133120046033865,0.11781416747738928,0.11639740215508963
1.7080001831054688,car (1).jpg,0.07704331154147524,0.11764326603928399,0.11599621069386133,0.11579464266236338,0.11492200820708373,0.11374112084402094,0.11686627469852862,0.11552065497883021,0.11264724882212267,0.11728141364829703,0.1092683356128139,0.11836048881536589,0.10945781135056154,0.1114497541129296,0.11781756494254648,0.1163838122944608
1.7080001831054688,car (1).jpg,0.0771419050862676,0.1176466635044412,0.11598941576354692,0.11581846962195273,0.1149174260994704,0.11373837157945293,0.11685836218099144,0.11551897859799606,0.11255846769314619,0.11727683154068369,0.10917680521926942,0.11835729251590878,0.10938443057351477,0.11144651310998357,0.1178121558203883,0.11642346428912452
1.7090001106262207,car (1).jpg,0.07711973215576794,0.11765209497834384,0.11599824470260676,0.11580604205203558,0.1149265232594637,0.11374617233826784,0.11686810754157395,0.11552608645273285,0.11259228588250707,0.11728376058146484,0.10922088285933529,0.11836093585025499,0.10940781049821502,0.11151915627946332,0.11781705085242401,0.11641675876578793
1.7090001106262207,car (1).jpg,0.07708772445770794,0.1176452106410516,0.11599276852521521,0.11582662800867892,0.1149180743000596,0.11373971268412025,0.11686184905312647,0.11552045381313011,0.11260522754254669,0.11727734563080616,0.10921364089413177,0.11836245576887795,0.10945445858889324,0.11134881363496943,0.11781935308210291,0.11640290068422564
1.7090001106262207,car (1).jpg,0.07703946704142893,0.11764813871957525,0.11600166451950843,0.1158018846275669,0.11492717146005291,0.11374690994583486,0.11687110267533096,0.11552724874344453,0.11257042587642978,0.11728295591866444,0.10918626000717402,0.11836379687354527,0.10940389894293534,0.11145004468560751,0.11781959895129192,0.11642954396361636
1.7090001106262207,car (1).jpg,0.07702802294826781,0.1176496586381982,0.11600356441778713,0.1158195872091755,0.11492773025366429,0.11374804988480208,0.11687204144859809,0.11552644408064414,0.11265017690064631,0.11728693452917749,0.10925921610107614,0.11837177644631582,0.10949337297598993,0.1113211198235893,0.11782923255315216,0.11638573454448396
1.7090001106262207,car (1).jpg,0.07712856109482778,0.11765895696389161,0.11600416791488742,0.11581301579630564,0.11493271469267782,0.11375265434415988,0.11687344960849877,0.1155332166592141,0.11258812845803838,0.11729066727050153,0.1092165242691665,0.11836764137359158,0.10940899514067115,0.11151868689282976,0.11782382343099397,0.11642223494317948
1.7090001106262207,car (1).jpg,0.07710261071951517,0.11765479953942293,0.11600175392648625,0.11583697686636173,0.11492650090771925,0.11374883219585802,0.11686967216368582,0.115530266228946,0.1126128718391504,0.11728733686057768,0.10922689547859377,0.11837260346086066,0.10946735554544396,0.11135728494611799,0.11782909844268542,0.11641210960294122
1.7090001106262207,car (1).jpg,0.07706400925684086,0.11765788408015776,0.11601183456323559,0.11581285933409445,0.11493664859970196,0.11375652119595064,0.11687910459984596,0.11553551888889299,0.11266524197640919,0.11729616579963753,0.10929222962763663,0.11837651501614034,0.10949116015328886,0.11145008938909642,0.11783397112297668,0.11639626221612241
1.7090001106262207,car (1).jpg,0.0771783607814742,0.11766353907150495,0.11600602310967721,0.11583637336926143,0.11493334054152257,0.1137542413180162,0.11687420956781025,0.11553527301970398,0.11258535684172592,0.11729062256701261,0.10921095868479713,0.11837202231550482,0.1094296258008034,0.11146841781954978,0.11782802555895157,0.11643616007997513
1.7090001106262207,car (1).jpg,0.07706796551560945,0.11765904637086944,0.11601232630161361,0.1158294890319692,0.11493550866073474,0.11375620827152827,0.11687997631787972,0.1155368152900714,0.11267597081374774,0.11729652342754882,0.10929343662183721,0.11838219235923199,0.10952960515375199,0.11135766492577373,0.11783958141083496,0.1163941164486547
1.7090001106262207,car (1).jpg,0.07716405566502281,0.11766959639425234,0.11601574611851527,0.11582394579934428,0.11494288473640499,0.11376291379486486,0.11688312791384792,0.11554401255178601,0.11262275131019965,0.11729931739560573,0.10925689151965279,0.11837747614115192,0.10944750719636764,0.11154709596003246,0.11783343468110975,0.11642876165256043
1.7090001106262207,car (1).jpg,0.07714253093511235,0.11766425432732752,0.1160110299004352,0.11584701279962216,0.11493494986712335,0.11375716939653985,0.11687722705331172,0.11553844696741664,0.11263084264169247,0.11729596463393743,0.10924707910383691,0.11838205824876526,0.10949033313874401,0.1113771332951943,0.11783844147186774,0.1164206256175787
1.7100000381469727,car (1).jpg,0.07709691102467907,0.1176681658826072,0.11602128935114019,0.11582323054352171,0.11494520931782834,0.11376508191407703,0.11688757591099452,0.11554492897330867,0.11268669965108628,0.1173048829799751,0.10931855998260498,0.11838617096974503,0.10952193850540382,0.11147054123527303,0.1178431129864589,0.1164038171057483
1.7100000381469727,car (1).jpg,0.07720900502312243,0.1176746702402437,0.11601690840922695,0.11584703515136661,0.11494362234397201,0.11376425489953218,0.1168832843760591,0.11554510778726432,0.1126056745774358,0.1173015302183068,0.10923355629844145,0.1183834887604104,0.10944911652196843,0.11148958492154895,0.11783882145152348,0.11644715713824715
1.7100000381469727,car (1).jpg,0.07709552521652284,0.11766892584191868,0.11602184814475157,0.11583972613092973,0.11494467287596141,0.11376427725127664,0.11688739709703888,0.11554394549655264,0.11268904658425409,0.11730313954390759,0.10930807701445544,0.11838992606281352,0.10954578781673763,0.11135947541707461,0.11784695748650521,0.11640209602142525
1.7100000381469727,car (1).jpg,0.0771812665082534,0.11767719598736716,0.1160234351186079,0.11583172420641473,0.11495026081207524,0.11376923933854571,0.11688985578892896,0.1155501145780223,0.11263330133358256,0.11730787811373211,0.1092723365750714,0.1183868862255676,0.10947126710072363,0.11155679661712606,0.1178427106550587,0.11643745648115354
1.7100000381469727,car (1).jpg,0.07715920533647601,0.11767395498442113,0.11602037292961752,0.11585700402939368,0.11494465052421696,0.11376606539083306,0.11688583247492701,0.1155477676448545,0.11263155789751504,0.11730378774449679,0.10925264468820628,0.1183902389872359,0.10949920678129277,0.11138515757145376,0.11784633163766046,0.11643030392292784
1.7100000381469727,car (1).jpg,0.07710875744924038,0.11767574312397755,0.11602821839192133,0.11583114306105889,0.11495233952430958,0.11377218976881383,0.1168944378965423,0.11555272973212358,0.1126888901220429,0.11731051561957784,0.10932316444196277,0.11839216123725906,0.10953581893871056,0.1114796607470108,0.11784919266095074,0.11641007559419579
1.7100000381469727,car (1).jpg,0.07721743163078208,0.11767998995542407,0.1160215352203292,0.11585271249445826,0.1149488303004301,0.11376952991122363,0.11688840292553937,0.11555158979315636,0.11260174067041166,0.1173069840439539,0.10923158934492938,0.11838889788256858,0.10945971124884024,0.11150473940428965,0.11784420822193721,0.11645408617902829
1.7100000381469727,car (1).jpg,0.07709820742585748,0.1176759219379332,0.11602875483378826,0.11584862212522294,0.11495169132372038,0.1137725026932362,0.11689441554479785,0.11555317676701268,0.11268336924116244,0.11731152144807833,0.109305797136521,0.1183982409117509,0.10955159927029601,0.11137695448123866,0.11785489235578685,0.11641190843724113
1.7100000381469727,car (1).jpg,0.07716904010403634,0.11768005701065744,0.11602589381049798,0.11586406718064156,0.11495023846033078,0.113772100361836,0.11689146511452975,0.11555295324956813,0.11263180376670405,0.11731020269515546,0.10925409755159587,0.11839676569661685,0.10951161199946546,0.11139034317616739,0.11785270188483023,0.11643864112360967
1.7109999656677246,car (1).jpg,0.07710936094634067,0.11768229218510297,0.11603492391525792,0.11583914498557389,0.11495877682671271,0.11377873882993923,0.11690069638498979,0.11555925644150453,0.11268558206386352,0.11731967983480451,0.10932061634309487,0.11840157132167474,0.10954277033123616,0.11147246348529619,0.11785864744885534,0.11641984330652276
1.7109999656677246,car (1).jpg,0.07709735805956817,0.11768383445547038,0.11603610855771405,0.11585682521543804,0.11495915680636845,0.11377943173401735,0.11690172456523473,0.11556073165663858,0.11268564911909688,0.11731717643942552,0.10930859110457791,0.11840427588275383,0.10956740195362591,0.11137867556556172,0.11786159787912344,0.11641955273384484
1.7109999656677246,car (1).jpg,0.07718323346176546,0.11769237282185231,0.11603847784262632,0.11584690104089988,0.11496552705353821,0.11378468439396434,0.1169049432164363,0.11556661016543032,0.1126400292086636,0.11732184795401668,0.1092811431623868,0.11840130310074128,0.10949761980743644,0.11157009590507697,0.11785773102733267,0.11645169454237157
1.7109999656677246,car (1).jpg,0.07716912951101416,0.11768902006018402,0.11603454393560218,0.11587305258191259,0.11495949208253528,0.1137805046177512,0.11690071873673424,0.11556254214793946,0.11263962687726341,0.11731726584640334,0.10925816556908674,0.11840409706879819,0.1095241960315938,0.11140400009202958,0.11786072616108968,0.11644601719927992
1.7109999656677246,car (1).jpg,0.07710696930968396,0.1176895788537954,0.1160421882322059,0.11584647635775523,0.11496702462041672,0.11378613725735394,0.11690805010891558,0.1155656713921632,0.11269731672970255,0.11732486543951814,0.10932848415714314,0.11840704749906629,0.10955361092729698,0.11148363935752384,0.11786425773671362,0.11642364310308016
1.7620000839233398,car (1).jpg,0.07722536650006372,0.11769530090037596,0.11603666735132544,0.11586750934928768,0.11496447652154881,0.113785354946298,0.11690261863501294,0.11556763834567527,0.11260788740013687,0.11732137856738312,0.10923630556300945,0.11840340416472007,0.10947815143801587,0.11152729231444505,0.11785878155932207,0.11646890538560216
1.7620000839233398,car (1).jpg,0.077108444524818,0.11769004824042896,0.11604207647348362,0.11586375425621918,0.11496570586749386,0.11378629371956513,0.11690822892287123,0.1155671242555528,0.11268766077609786,0.1173244407563735,0.10930698177897713,0.11841171901365745,0.1095726546135729,0.11139043258314521,0.11786854927164904,0.11642639236764817
1.7620000839233398,car (1).jpg,0.07718967076416859,0.11769974889752256,0.11604551864212974,0.1158543441718035,0.11497290312920846,0.11379302159464617,0.11691191696070635,0.11557427681377849,0.1126414820720532,0.11732837466339763,0.10928080788621997,0.11840740512697757,0.10950081610689355,0.11157854486448107,0.11786347542565768,0.11645681309185184
1.7620000839233398,car (1).jpg,0.0771768632145957,0.11769328924337498,0.11603760612459256,0.11587765704127038,0.11496362715525951,0.11378553376025365,0.11690402679491363,0.11556730306950844,0.11263211669112642,0.11732119975342747,0.1092499848306161,0.11840738277523312,0.10951963627572492,0.11140589999030828,0.11786385540531343,0.11645113574876019
1.7620000839233398,car (1).jpg,0.07711805577493379,0.11769579263875397,0.11604685974679706,0.11585255603224708,0.11497200905943025,0.11379228398707915,0.11691285573397348,0.11557143814223267,0.11269313695348941,0.11733152625936583,0.10932573489257513,0.11841350715321387,0.10955714250292092,0.11148625451162511,0.11787049387341665,0.11642990159152765
1.812000036239624,car (1).jpg,0.07722136553780622,0.11770160409231235,0.11604326111593975,0.11587432663134654,0.11497051149255175,0.11379328981557964,0.11690941356532736,0.11557494736611215,0.11260529459778006,0.11732886640177564,0.10923255046994096,0.11841040026073459,0.10947790556882686,0.1115375741168945,0.11786564354486985,0.1164762367577835
1.812000036239624,car (1).jpg,0.07711470301326549,0.1176969325777212,0.11604860318286457,0.11587124209061171,0.11497131615535214,0.11379434034756904,0.11691446505957426,0.11557454503471196,0.11268618556096381,0.11733027456167633,0.10930067858704073,0.11841744106023801,0.10957354868335112,0.1113967357750816,0.11787424896648514,0.11643220382120655
1.812000036239624,car (1).jpg,0.07719255413920333,0.11770652147609252,0.1160529394212889,0.11586160848875147,0.11497934043161159,0.11380100116741672,0.11691982947824353,0.11558189875863775,0.11264280082497606,0.11733778474781331,0.10928290895019876,0.11841706108058227,0.10950595700811827,0.11158621151282924,0.11787293021356228,0.11646470325764456
1.812000036239624,car (1).jpg,0.07718305464780982,0.11770511331619184,0.1160504360259099,0.11589006225944308,0.11497451245480925,0.11379805073714862,0.11691585086773049,0.11557859070045837,0.112635581211517,0.11733528135243432,0.10926221123483315,0.11842191140912907,0.10952918047060733,0.11142387079285035,0.11787782524559799,0.11646470325764456
1.812000036239624,car (1).jpg,0.07712241436510257,0.11770746024935964,0.11606038255219252,0.11586556474752006,0.11498414605666948,0.1138051585918854,0.11692564093180191,0.1155844245057612,0.11269765200586938,0.11734377501532733,0.10934004000902653,0.1184264488132535,0.10957091117750539,0.11149702805245257,0.11788341318171182,0.11644183742306678
2.0980000495910645,car (2).jpg,0.07724396315145053,0.11771479162154098,0.11605664981086848,0.11588668714603033,0.11498352020782474,0.11380518094362986,0.11692065649278838,0.1155863244040399,0.11261385531590644,0.11734055636412577,0.10925680211267497,0.11842240314750709,0.10949654692370259,0.11154186565182991,0.11787820522525373,0.11648857492072283
2.0980000495910645,car (2).jpg,0.07712923164716144,0.11770842137437122,0.11606036020044806,0.1158832002738953,0.11498349785608028,0.11380446568780729,0.11692573033877973,0.11558475978192803,0.11270084830532649,0.11734241155891556,0.10933087579379985,0.11842989098189961,0.10959920848598581,0.11140601174903056,0.11788748119920268,0.11644684421382477
2.0980000495910645,car (2).jpg,0.07720115956081862,0.11771854671460948,0.11606552345341724,0.11587376783773516,0.11499225973990676,0.113812109984411,0.11693198882722722,0.11559296287214313,0.1126671865781768,0.11734855828864077,0.10931764356108231,0.11842805813885428,0.10953912699688995,0.11160547871654972,0.11788508956254597,0.11647804724908438
2.0980000495910645,car (2).jpg,0.07719675626716092,0.11771257879883991,0.11605828148821372,0.11589907001245857,0.114983140228169,0.11380513624014095,0.11692521624865726,0.11558690554939574,0.11265346260708124,0.11734207628274873,0.10928771457525666,0.11842895220863249,0.10955039227609542,0.11144497083961616,0.11788569305964626,0.11647637086825023
2.0980000495910645,car (2).jpg,0.07712330843488079,0.11771505984247445,0.11606856329066316,0.11587577949473614,0.11499241620211795,0.11381324992337823,0.116936101548207,0.11559271700295412,0.11271595808457828,0.1173518439950757,0.10935597680282316,0.11843451779300186,0.1095812600351882,0.1115066169508239,0.11789208565856048,0.11645310270227226
2.0980000495910645,car (2).jpg,0.07724177268049391,0.11772102775824402,0.11606275183710478,0.11589473377403424,0.11498995751022786,0.11381197587394427,0.11693158649582702,0.11559180058143145,0.11262811572886892,0.11734750775665137,0.10925711503709734,0.11842863928421012,0.10948396289157425,0.11155523199501419,0.11788560365266844,0.11649771678420505
2.0980000495910645,car (2).jpg,0.07713068451055104,0.11771434458665188,0.11606565756388397,0.11589191745423287,0.11498866110904946,0.1138112159146328,0.11693480514702859,0.11558996773838612,0.11271452757293314,0.11734840182642958,0.10931625775292608,0.11843429427555731,0.10957131350890559,0.11140726344672006,0.11789389614986136,0.1164539297168171
2.0989999771118164,car (2).jpg,0.07720158424396327,0.11772332998792291,0.1160687421046188,0.11587973575350473,0.11499603718471971,0.11381700501644672,0.11693900727498618,0.11559624857857806,0.11269273462208922,0.11735626964047785,0.10929066500552476,0.11843337785403464,0.10949332827250102,0.11159244764953227,0.11789264445217186,0.1164836351851982
2.0989999771118164,car (2).jpg,0.07712578947851532,0.11772080424079946,0.1160689432703189,0.11589909236420302,0.11499688655100901,0.11381713912691345,0.11694311999596596,0.11559613681985578,0.11274807754136056,0.11735816953875655,0.10928755811304547,0.11844243031053904,0.10953798705792273,0.1113968922372928,0.11790361915869942,0.11646409976054427
2.0989999771118164,car (2).jpg,0.0771953704590047,0.11772842618565872,0.11606760216565158,0.11591464917834392,0.11499838411788751,0.113820111908926,0.11694189065002092,0.11559944487803517,0.11270341875593885,0.11736138818995812,0.10923749020546558,0.11844457607800675,0.10948362761540742,0.11143654423195651,0.11790384267614397,0.11649646508651555
2.0989999771118164,car (2).jpg,0.07721807983137129,0.11773401412177255,0.11607137961046453,0.1159070048817402,0.11500522375169084,0.11382563278980647,0.11694727742043465,0.11560489870368226,0.11271857323867955,0.11737187115810765,0.10926887205468083,0.11844839822630861,0.1094757374496147,0.11160004724264708,0.11790540729825584,0.11649870026096108
2.0989999771118164,car (2).jpg,0.0771733092872273,0.1177342376392171,0.11607433004073263,0.11591974537607973,0.1150054919726243,0.11382865027530793,0.11694823854544623,0.11560746915429462,0.11270607861352903,0.11736907719005074,0.10923952421421101,0.11845262270601066,0.10949761980743644,0.1114491506158293,0.11790945296400225,0.11650321531334105
2.0989999771118164,car (2).jpg,0.077097447466546,0.11773645046191818,0.11608530474726018,0.1158964548583573,0.1150151926297179,0.113835869888767,0.11695860975487349,0.11561334766308637,0.1127794146870869,0.11737692265235455,0.10932376793906307,0.11845736127583519,0.1095511522354069,0.11149548578208515,0.11791537617628291,0.11647384512112678
2.0989999771118164,car (2).jpg,0.07722143259303958,0.11774346890967714,0.11608058852918011,0.11591283868704304,0.11501403033900623,0.11383499817073324,0.11695384883330451,0.11561395116018666,0.11268819721796479,0.11737504510582031,0.10923626085952054,0.11845376264497788,0.10946460628087595,0.11157060999519944,0.11791010116459145,0.11652212488915024
2.1000001430511475,car (2).jpg,0.07711423362663193,0.1177403396654534,0.11608673525890532,0.11591549854463322,0.11501548320239582,0.11383667455156739,0.11695945912116279,0.11561462171252032,0.11276388022469046,0.11737660972793218,0.10929938218586233,0.11846154105204833,0.10955993647097784,0.11140762107463134,0.11791962300772942,0.11648131060377485
2.1000001430511475,car (2).jpg,0.07717505272329482,0.11774916860451325,0.11609138442175203,0.11590112637294846,0.11502350747865528,0.11384259776384804,0.11696477883634315,0.11562085784922335,0.1127404555965013,0.11738313643731313,0.10929544827883819,0.11846037876133665,0.10951230490354358,0.1115999354839248,0.11791821484782873,0.11650627750233143
2.1000001430511475,car (2).jpg,0.07717885251985222,0.11774691107832326,0.11608660114843859,0.11592991541980689,0.11501816541173046,0.11383873091205728,0.116960107321752,0.11561837680558881,0.11272304358757061,0.11737978367564483,0.1092594843220096,0.11846388798521613,0.1095254477292833,0.11145733135429994,0.11792161231298594,0.11651233482507882
2.1000001430511475,car (2).jpg,0.07709250773102137,0.11774787220333484,0.11609652532297675,0.1159067590125512,0.11502688259206803,0.11384635285691654,0.11697012090326797,0.11562434472135838,0.11279244575410434,0.11738736091701518,0.10934100113403811,0.1184684030375961,0.10957777316305317,0.11150775688979112,0.11792675321421066,0.11648207056308633
2.1000001430511475,car (2).jpg,0.07721519645633655,0.1177554941481941,0.11609227849153024,0.11592332165519258,0.11502612263275655,0.11384664342959445,0.11696629875496611,0.11562559641904788,0.11269977542159264,0.11738525985303638,0.10924973896142709,0.11846420090963851,0.10948854499918759,0.11159086067567595,0.11792096411239673,0.11653057384855435
2.1000001430511475,car (2).jpg,0.07710406358290477,0.11775055441266948,0.1160969500061214,0.11592499803602672,0.11502572030135635,0.11384713516797247,0.11696989738582342,0.11562488116322531,0.11276944580905983,0.11738872437342696,0.10930982045052295,0.11847399097370993,0.10957497919499626,0.11142977165338655,0.11793176000496865,0.11649286645565825
2.1000001430511475,car (2).jpg,0.07716595556330151,0.11776052329069654,0.11610336495678007,0.1159114081753979,0.1150347504061163,0.1138550253337652,0.11697577589461516,0.11563333012262941,0.11274809989310501,0.11739516167583008,0.10930765233131079,0.11847249340683143,0.10952267611297084,0.11162476827201465,0.11792939072005638,0.11651608991814731
2.1000001430511475,car (2).jpg,0.07718073006638647,0.11776018801452971,0.11609976632592277,0.11594149362343474,0.11503007889152514,0.11385178433081918,0.11697148435967974,0.11563080437550596,0.11272769275041732,0.11739216654207307,0.10926795563315816,0.11847651672083338,0.10952844286304031,0.11148019718887772,0.11793330227533606,0.11652460593278478
2.1000001430511475,car (2).jpg,0.07709883327470222,0.11775962922091833,0.1161083493957936,0.11591721962895628,0.11503707498753965,0.1138571711012329,0.1169799109673394,0.11563505120695247,0.11279626790240621,0.1173971509810866,0.10934748313993015,0.11847917657842356,0.1095869597300243,0.11151937979690787,0.11793705736840455,0.11649174886843548
2.1000001430511475,car (2).jpg,0.0772172751685709,0.11776510539830988,0.1161026497009575,0.11593148004191876,0.11503470570262739,0.11385578529307668,0.11697418892075884,0.11563415713717426,0.11270160826463797,0.11739449112349643,0.10925897023188713,0.11847432624987676,0.10949603283358011,0.11160386939094893,0.1179302847898346,0.11653996158122558
2.1000001430511475,car (2).jpg,0.07711121614113046,0.11775951746219605,0.11610642714577045,0.1159339610855533,0.11503407985378264,0.1138554723686543,0.11697772049638278,0.1156336877505407,0.11276978108522666,0.11739509462059672,0.10931788943027132,0.1184814117528691,0.10958859140736954,0.11145082699666345,0.11793839847307187,0.11650037664179523
2.1010000705718994,car (2).jpg,0.0771665590604018,0.11776738527624432,0.11611089749466151,0.11591818075396786,0.1150421041300421,0.1138613732291905,0.1169820567348071,0.1156393874453768,0.11274186375640198,0.11739969907995451,0.1093142460959251,0.11847796958422298,0.10953210854913098,0.11163703937972061,0.11793399517941418,0.11652091789494966
2.1010000705718994,car (2).jpg,0.07718385931061021,0.11776278081688653,0.11610269440444641,0.11594451110893621,0.11503280580434869,0.1138539748017758,0.11697269135388033,0.1156339336197297,0.1127147510903777,0.117395452248508,0.10927374473497209,0.11848047297960197,0.10954268092425834,0.11150395709323371,0.11793620800211525,0.11652988094447624
2.1019999980926514,car (2).jpg,0.07709458644325572,0.11776387605236484,0.11611324442782932,0.1159227628615812,0.1150423499992311,0.11386081443557912,0.1169841577987859,0.11563994623898818,0.11278274509701074,0.11740209071661123,0.10935447923594466,0.11848471981104848,0.10960280711684312,0.11152762759061188,0.11794181828997354,0.11649825322607198
2.1019999980926514,car (2).jpg,0.07721421297958052,0.11777147564547964,0.11610942227952746,0.11593838673095545,0.11504239470272001,0.11386170850535733,0.11698033565048405,0.11564220376517817,0.11268931480518755,0.11740108488811074,0.10926212182785533,0.11848114353193563,0.10951210373784348,0.11161964972253438,0.11793681149921555,0.11654885757551879
2.315999984741211,car (2).jpg,0.07710929389110731,0.1177658430058769,0.11611268563421794,0.11594127010599019,0.1150417017986419,0.1138613732291905,0.11698373311564125,0.11564070619829966,0.1127567053147203,0.11740083901892173,0.10931098274123463,0.11848722320642747,0.10959623570397325,0.11144707190359496,0.11794474636849718,0.11650920558085508
2.315999984741211,car (2).jpg,0.07715911592949819,0.11777500722110358,0.11611843003254295,0.11592555682963811,0.1150507542551463,0.11386843638043838,0.11698891872035488,0.11564631648615795,0.11273180547139709,0.11740763394923615,0.10930470190104269,0.11848577034303788,0.10953445548229879,0.11161906857717854,0.1179425335457961,0.11652997035145406
2.317000150680542,car (2).jpg,0.0771812665082534,0.11777120742454618,0.1161104504597724,0.11595224481251774,0.11504138887421952,0.11386144028442387,0.11698024624350623,0.11564184613726688,0.11270379873559459,0.11740119664683302,0.10926386526392284,0.11848599386048243,0.10954234564809151,0.11149304944193952,0.1179422876766071,0.1165368993922352
2.317000150680542,car (2).jpg,0.07708998198389792,0.11777120742454618,0.11612146986978887,0.11593072008260728,0.11505001664757927,0.11386854813916066,0.11699173504015625,0.11564770229431418,0.11278397444295578,0.1174108078969488,0.10935387573884436,0.11849359345359724,0.10960830564597912,0.11152445364289923,0.11795075898775566,0.11650625515058698
2.317000150680542,car (2).jpg,0.07721986797092771,0.11777999166011711,0.11611791594242048,0.11594625454500372,0.11504979313013472,0.1138693751537055,0.11698742115347638,0.11564973630305961,0.11269271227034476,0.11740834920505872,0.10926489344416779,0.11848825138667242,0.10950971210118676,0.11162168373127981,0.1179439864091857,0.11655469138082163
2.317000150680542,car (2).jpg,0.07712004508019031,0.11777554366297051,0.11612252040177827,0.11595228951600665,0.11505017310979046,0.11387035863046154,0.11699184679887853,0.11564984806178188,0.11275809112287653,0.11741018204810405,0.10931522957268114,0.11849670034607653,0.10960016961099739,0.11145093875538573,0.11795397763895722,0.11651810157514829
2.317000150680542,car (2).jpg,0.07719749387472795,0.11777878466591653,0.11611818416335394,0.11596192311786689,0.11504851908070077,0.11386901752579422,0.116987108229054,0.11564893164025922,0.11271101834905366,0.11740989147542613,0.10927622577860663,0.1184942640059309,0.10955099577319571,0.11150163251181036,0.11795060252554447,0.11654579538652841
2.317000150680542,car (2).jpg,0.07710375065848239,0.11777858350021643,0.11612772835823636,0.11593943726294485,0.1150566551156825,0.1138752760142417,0.11699640655474741,0.11565384902403938,0.11278591904472339,0.1174162617225959,0.10935919545402473,0.11849822026469949,0.10961355830592612,0.11152165967484232,0.11795605635119157,0.11651115018262269
2.317000150680542,car (2).jpg,0.07722833928207627,0.11778656307298697,0.11612404032040123,0.11595316123404041,0.11505674452266032,0.11387630419448665,0.11699423843553525,0.11565606184674046,0.11275811347462099,0.11741603820515134,0.10932334325591841,0.11850137186066768,0.10960653985816715,0.1114580019066336,0.11795956557507105,0.11652415889789568
2.317000150680542,car (2).jpg,0.07716298278128896,0.11778971466895517,0.11613280220422771,0.11594080071935663,0.11506492526113096,0.11388309912480106,0.11700277680191717,0.11566093452703172,0.11274079087266813,0.11742236374883219,0.10932828299144304,0.11849998605251146,0.1095642056541688,0.11163987805126643,0.11795764332504789,0.11654179442427091
2.317000150680542,car (2).jpg,0.07719190593861412,0.11778808299160994,0.11612723661985834,0.11597019326331535,0.11505862206919457,0.1138784276102099,0.11699783706639255,0.11565950401538658,0.11275158676524004,0.11743394195246004,0.10934909246553093,0.1185119665875395,0.10958181882879958,0.11164866228683737,0.11796877449378664,0.11655010927320829
2.317000150680542,car (2).jpg,0.07709758157701273,0.11778915587534379,0.11613832308510817,0.11594929438224964,0.11506749571174332,0.11388584838936906,0.11700847649675328,0.11566556133813397,0.11277027282360468,0.11742506830991128,0.10934124700322712,0.11851109486950574,0.10962491299210941,0.1114685072265276,0.11796870743855327,0.11653202671194395
2.318000078201294,car (2).jpg,0.07722471829947451,0.11779724720683661,0.11613512678565106,0.11596205722833362,0.11506787569139906,0.11388620601728035,0.11700465434845142,0.11566587426255634,0.1127092972647306,0.11742587297271168,0.10929564944453829,0.118505216360714,0.10954024458411271,0.11164376725480166,0.11796157723207203,0.11657033760194034
2.318000078201294,car (2).jpg,0.07719342585723708,0.11779943767779323,0.11613917245139747,0.11598101150763172,0.11506988734840004,0.11389036344174903,0.11700776124093071,0.11566978581783602,0.11271557810492254,0.11742940454833561,0.10929947159284015,0.11851371002360701,0.10957862252934247,0.11152378309056557,0.11796980267403158,0.11656318504371464
2.319000005722046,car (2).jpg,0.07709702278340134,0.11779771659347017,0.1161475096520793,0.11595852565270968,0.11507639170603653,0.1138950796598291,0.11701632195905709,0.11567336209694887,0.11279593262623938,0.11743593125771656,0.10939013026835087,0.1185189179800651,0.10965551253026873,0.11154363143964188,0.1179761952729458,0.11652713167990823
2.319000005722046,car (2).jpg,0.07722883102045429,0.11780567381449626,0.11614393337296645,0.11597093087088238,0.11507692814790346,0.11389579491565167,0.117013617397978,0.1156757984370945,0.1127042457704837,0.11743490307747162,0.10930499247372061,0.11851449233466295,0.10956053996807813,0.111656597156119,0.11796998148798722,0.11657693136655466
2.319000005722046,car (2).jpg,0.07713828410366584,0.11780167285223876,0.11614739789335703,0.11597835165004154,0.11507547528451387,0.11389512436331801,0.11701565140672343,0.1156734962074156,0.11276589188169144,0.11743454544956033,0.10935193113707675,0.11852155548591083,0.10964342023651841,0.11147161411900688,0.11797825163343569,0.11654052037483696
2.319000005722046,car (2).jpg,0.07718137826697567,0.11781077001223207,0.11615455045158272,0.11596044790273284,0.11508537710730757,0.11390267925294391,0.11702342981379388,0.11568152048367505,0.1127543583815525,0.11744243561535306,0.10936268232615975,0.1185214213754441,0.10959994609355284,0.11165290911828388,0.11797746932237975,0.11655659127910033
2.319000005722046,car (2).jpg,0.07722353365701838,0.1178100547564095,0.1161487613497688,0.11598995220541385,0.11507914097060454,0.1138984324214974,0.11701650077301273,0.11567819007375121,0.11271323117175473,0.11743693708621705,0.10930946282261167,0.11852195781731102,0.10959002191901468,0.111528566363879,0.11797708934272401,0.11657049406415153
2.319000005722046,car (2).jpg,0.07712324137964742,0.11780598673891864,0.11615519865217193,0.11596574526616875,0.11508374542996233,0.11390084640989857,0.1170233180550716,0.11567915119876279,0.11279322806516029,0.11744194387697504,0.10939714871610984,0.11852575761386842,0.10966369326873937,0.11153735059944994,0.11798247611313774,0.1165328984299777
2.319000005722046,car (2).jpg,0.07725004282594237,0.11781427923611155,0.11615139885561453,0.11597730111805214,0.11508387954042906,0.11390200870061025,0.11701994294165885,0.11568183340809743,0.11270467045362835,0.11744044631009654,0.10931576601454807,0.11852088493357717,0.109572855779273,0.11165847470265325,0.11797608351422352,0.11658269811662413
2.319000005722046,car (2).jpg,0.0771400051879889,0.11780784193370843,0.11615555628008321,0.11598673355421228,0.11508365602298451,0.11390245573549936,0.1170233180550716,0.11568152048367505,0.11278258863479955,0.11744192152523059,0.10938241891651379,0.11853040677671513,0.10968432392887162,0.11150344300311124,0.11798752760738464,0.11654979634878591
2.319000005722046,car (2).jpg,0.0771623122289553,0.11781535211984541,0.11616291000400901,0.11596936624877051,0.11509418369462296,0.11391005532861416,0.11703201288366472,0.11568876244887857,0.11277147981780526,0.11744947641485648,0.10939071141370671,0.1185300715005483,0.10964156504172862,0.11167501499355018,0.11798670059283979,0.11656492847978216
2.319000005722046,car (2).jpg,0.07719349291247045,0.11781488273321185,0.11615689738475053,0.11600012224914101,0.11508817107536448,0.11390594260763438,0.11702579909870614,0.11568648257094413,0.11272639634923891,0.1174445143275874,0.10932687483154235,0.11853058559067077,0.109623616590931,0.11155990350960535,0.11798636531667296,0.11658137936370126
2.811000108718872,car (2).jpg,0.07708830560306378,0.1178127593174886,0.116165167530199,0.11597875398144174,0.11509418369462296,0.11391092704664792,0.11703397983717678,0.11569012590529035,0.11280006769896361,0.1174499681532345,0.1094077210912372,0.1185349218290951,0.10968394394921588,0.11155871886714921,0.1179913944591754,0.1165432025841716
2.811000108718872,car (2).jpg,0.07720884856091124,0.11781991187571429,0.11616107716096367,0.11598789584492396,0.11509295434867792,0.11391135172979257,0.11702859306676305,0.11569046118145718,0.11270775499436318,0.11744963287706767,0.1093283500466764,0.1185307197011375,0.10958309287823353,0.11168377687737666,0.11798511361898346,0.11659244347720664
2.812000036239624,car (2).jpg,0.07711919571390101,0.11781474862274512,0.11616378172204277,0.11599616599037242,0.11509054036027674,0.11391016708733644,0.11703009063364156,0.11568876244887857,0.11276685300670301,0.11744802355146688,0.10937470756467671,0.11853666526516261,0.10966554846352916,0.11150824862816913,0.1179924002876759,0.11655715007271171
2.812000036239624,car (2).jpg,0.07715176220557239,0.1178216106082929,0.11616912378896758,0.11597611647559601,0.11509854228479174,0.11391609029961709,0.11703603619766667,0.11569383629486993,0.11275999102115523,0.11745557844109278,0.10938603989911555,0.11853630763725133,0.10963369722768035,0.11168031235698608,0.11799184149406451,0.1165705611193849
2.812000036239624,car (2).jpg,0.07719595160436053,0.11782277289900457,0.11616387112902059,0.11600687247596651,0.11509375901147831,0.11391231285480415,0.11703109646214205,0.11569175758263558,0.11271546634620026,0.11745054929859033,0.10932689718328681,0.1185370228930739,0.10962015207054043,0.11156515616955234,0.11799177443883115,0.11658815194227122
2.812000036239624,car (2).jpg,0.07709480996070027,0.1178199565792032,0.11617160483260212,0.11598499011814477,0.11509923518886986,0.113915889133917,0.11703845018606784,0.11569437273673686,0.11280031356815262,0.11745685249052673,0.10941525362911864,0.11854274493965446,0.1096909847487193,0.11155156630892352,0.11799890464531239,0.11655013162495274
2.812000036239624,car (2).jpg,0.07721989032267217,0.1178286067043074,0.11616887791977858,0.11599500369966075,0.1151002633691148,0.11391761021824005,0.11703545505231083,0.11569633969024892,0.11271061601765346,0.11745432674340328,0.10933156869787797,0.11853599471282895,0.10959288294230496,0.11167266806038237,0.11799058979637501,0.11659724910226453
2.813000202178955,car (2).jpg,0.07712424720814791,0.11782136473910389,0.1161687661610563,0.1160028268102201,0.11509628475860176,0.11391535269205007,0.11703663969476696,0.11569524445477061,0.11276343318980135,0.11745303034222487,0.10936487279711637,0.11854189557336516,0.109679384193347,0.1115074663171132,0.11799803292727863,0.11656343091290365
2.813000202178955,car (2).jpg,0.07714872236832647,0.11782818202116276,0.11617475642857032,0.11598293375765488,0.11510527015987279,0.11392299698865378,0.11704388165997048,0.11570333578626343,0.1127615109397782,0.11746297686850748,0.10938472114619269,0.11854404134083286,0.10964730944005363,0.11167903830755213,0.11799968695636832,0.11657733369795485
2.813000202178955,car (2).jpg,0.07708817149259704,0.11782874081477414,0.11618065728910652,0.11599603187990569,0.11510884643898564,0.11392650621253327,0.11704839671235046,0.11570409574557491,0.11280073825129727,0.11746485441504173,0.10941534303609646,0.11855079156765837,0.10970645215588237,0.11155176747462361,0.1180075994739055,0.11655759710760082
2.814000129699707,car (2).jpg,0.07715296919977298,0.11783815089918982,0.11618539585893105,0.1159945790165161,0.11511693777047846,0.1139329435149364,0.11705398464846428,0.11571062245495586,0.11280514154495497,0.11747392922329059,0.10942998342871468,0.11856033576254078,0.10971691277228746,0.11155033696297847,0.11801662957866545,0.1165676553926057
2.814000129699707,car (2).jpg,0.07720998849987847,0.11783902261722358,0.1161797185158394,0.11602482092676412,0.11511108161343117,0.11392936723582354,0.11704683209023858,0.11570829787353251,0.11271718743052332,0.11746742486565409,0.10934068820961573,0.11855394316362657,0.10963749702423775,0.11156888891087638,0.11800902998555064,0.11660663683493576
2.814000129699707,car (2).jpg,0.07714134629265622,0.11783940259687932,0.1161862228734759,0.11602240693836295,0.11511342854659898,0.11393334584633659,0.11705291176473043,0.11571068951018923,0.11276437196306847,0.11747024118545546,0.10938163660545785,0.11855986637590722,0.10969523158016581,0.11151352363986058,0.11801508730829803,0.11658146877067908
2.814000129699707,car (2).jpg,0.07716244633942203,0.11784469996031523,0.11619176610610081,0.11599976462122973,0.1151211175466916,0.11393942552082843,0.11705896908747782,0.11571802088237057,0.11276696476542529,0.11747746079891452,0.10940407775689098,0.11855930758229584,0.10966990705369795,0.11168248047619825,0.11801437205247546,0.1165893142329829
2.815000057220459,car (2).jpg,0.07721803512788238,0.11784651045161611,0.11618673696359837,0.11603056532508914,0.1151164683838449,0.11393596100043786,0.11705344820659735,0.1157160539288585,0.11271783563111253,0.11747392922329059,0.10934258810789443,0.1185610286666189,0.10964934344879906,0.11158491511165083,0.11801526612225367,0.11661164362569375
2.815000057220459,car (2).jpg,0.07710788573120662,0.11784472231205968,0.1161961693997585,0.11601190161846896,0.11512310685194813,0.11394125836387377,0.11706281358752413,0.11571987607716036,0.11280695203625585,0.11748023241522698,0.10943836533288542,0.11856751067251094,0.10973571058937437,0.11156795013760926,0.11802304452932412,0.11657118696822964
2.815000057220459,car (2).jpg,0.07723039564256616,0.11785227720168558,0.1161932189694904,0.11601909888018357,0.1151240232734708,0.11394275593075227,0.11706028784040068,0.1157219100859058,0.1127272010120393,0.11747942775242659,0.10936894081460724,0.11856219095733057,0.10964496250688582,0.11171283414516855,0.11801633900598753,0.11661939968101974
2.815000057220459,car (2).jpg,0.07714836474041518,0.11784742687313877,0.1161951188677691,0.11603101235997824,0.11512176574728081,0.11394137012259604,0.1170612266136678,0.11571871378644868,0.11277872178300878,0.11747848897915947,0.10940150730627862,0.11856907529462281,0.10971852209788824,0.11152174908182014,0.11802429622701362,0.11658909071553834
2.815999984741211,car (2).jpg,0.07716658141214626,0.11785489235578685,0.11620269610913946,0.11601006877542362,0.11513166757007451,0.1139491932331554,0.11706880385503815,0.11572499462664064,0.11278263333828846,0.11748725086298595,0.10942410491992294,0.11857010347486775,0.10968991186498545,0.11169168939491383,0.11802492207585837,0.11659785259936482
2.815999984741211,car (2).jpg,0.0772236230639962,0.1178551158732314,0.11619583412359168,0.11603972954031581,0.11512547613686039,0.11394523697438681,0.11706236655263502,0.11572414526035134,0.11272552463120515,0.11748121589198302,0.10935164056439883,0.1185686282597337,0.10966145809429384,0.11160469640549378,0.1180225527909461,0.11661971260544211
2.815999984741211,car (2).jpg,0.07711021031262998,0.11785120431795172,0.1162030760887952,0.11601972472902831,0.11513023705842937,0.11394870149477739,0.11707045788412784,0.1157271627458528,0.11281316582121442,0.11748801082229743,0.10943979584453056,0.11857566905923712,0.1097425949266666,0.11157581795165752,0.1180313593782615,0.11658019472124513
2.817000150680542,car (2).jpg,0.07723455306703485,0.11786094967853424,0.11620195850157243,0.11602741372912094,0.11513336630265311,0.11395183073900113,0.11706947440737181,0.1157319683709107,0.11273162665744145,0.11748789906357515,0.1093668621023729,0.11857066226847914,0.1096475776609871,0.11172262420923998,0.11802510088981401,0.11662887682066879
2.817000150680542,car (2).jpg,0.07715804304576433,0.11785480294880903,0.11620200320506134,0.11603892487751542,0.11512894065725096,0.1139487909017552,0.11706871444806033,0.11572772153946419,0.11278339329759994,0.1174855744821518,0.10939900391089963,0.11857613844587069,0.10972542878692493,0.11153623301222718,0.11803176170966169,0.11659832198599838
2.817000150680542,car (2).jpg,0.0771762150140065,0.1178614190651678,0.11620937928073159,0.11601735544411605,0.11513803781724427,0.11395587640474754,0.11707629168943068,0.11573357769651148,0.11279072466978128,0.11749158710141028,0.10942683183274649,0.11857477498945891,0.10970687683902702,0.11170498868286474,0.11802995121836081,0.11660268057616717
2.817000150680542,car (2).jpg,0.07723871049150353,0.11785980973956701,0.11620039387946056,0.11604466927584044,0.11512976767179581,0.11394975202676678,0.11706750745385974,0.11572908499587596,0.11273254307896412,0.11748758613915278,0.10935789905284632,0.11857535613481475,0.10967256691128813,0.11161582757423252,0.1180290571485826,0.11662744630902365
2.817000150680542,car (2).jpg,0.07712719763841601,0.11785960857386692,0.11621114506854356,0.11602879953727717,0.11513774724456635,0.11395636814312556,0.11707752103537572,0.11573456117326751,0.11281640682416044,0.11749538689796768,0.10944334977189896,0.1185835815767743,0.10974941220872547,0.11157642144875782,0.11803851193648719,0.11658830840448241
2.818000078201294,car (2).jpg,0.07725104865444286,0.1178688174925825,0.11620931222549823,0.11603514743270248,0.11514034004692317,0.11395936327688257,0.11707640344815295,0.11573860683901392,0.11272921266904028,0.11749467164214511,0.10936552099770558,0.11857756895751582,0.10964900817263223,0.11172577580520818,0.11803158289570605,0.11663531412307192
2.818000078201294,car (2).jpg,0.0771791654442746,0.1178624695971572,0.11620864167316457,0.11604708326424161,0.11513535560790963,0.11395601051521427,0.11707541997139692,0.11573494115292325,0.11277532431785157,0.11749203413629938,0.10939287953291887,0.11858266515525163,0.10972221013572336,0.11153826702097261,0.11803815430857591,0.11660527337852399
2.818000078201294,car (2).jpg,0.07719402935433738,0.1178685716233935,0.11621570482441244,0.11602417272617492,0.11514449747139185,0.11396276074203977,0.11708210314298906,0.1157404173303148,0.11278623196914576,0.11749894082533607,0.1094220709111775,0.11858221812036253,0.10969670679529986,0.11169084002862453,0.11803748375624225,0.11660869319542565
2.819000005722046,car (2).jpg,0.07725408849168879,0.117867319925704,0.11620700999581933,0.11605164302011049,0.11513669671257695,0.11395636814312556,0.11707314009346248,0.11573538818781236,0.11273305716908659,0.11749257057816631,0.10935863666041334,0.11858060879476175,0.1096724775043103,0.11161274303349769,0.11803491330562989,0.11663220723059263
2.819000005722046,car (2).jpg,0.07713975931879989,0.11786470477160273,0.116216174211046,0.1160345886390911,0.11514324577370236,0.11396088319550553,0.11708250547438925,0.11573869624599174,0.11282910261501106,0.11750041604047012,0.10945857130987302,0.11858950478905496,0.1097674500665009,0.1115750803440905,0.11804515040459042,0.1165920634975509
2.819000005722046,car (2).jpg,0.07726097282898102,0.11787664060314186,0.11621785059188015,0.1160434399298954,0.11514881135807173,0.11396669464906391,0.11708391363428994,0.11574455240303903,0.1127453059250481,0.11750314295329367,0.10938749276250515,0.11858666611750913,0.10967167284150992,0.1117302685058437,0.11804054594523263,0.11664175142547505
2.819000005722046,car (2).jpg,0.07718667563041158,0.11786915276874933,0.11621604010057927,0.116055889851557,0.11514295520102444,0.11396300661122878,0.11708299721276727,0.11574035027508144,0.11278770718427981,0.11749954432243637,0.10940608941389196,0.11859046591406654,0.10974518772902342,0.11155804831481556,0.11804521745982378,0.11661220241930513
2.819000005722046,car (2).jpg,0.07719224121478095,0.11787567947813028,0.1162237291006719,0.11603389573501298,0.1151529240790515,0.11397147792237734,0.1170915355791492,0.11574830749610752,0.11280574504205526,0.1175083285580073,0.10943648778635118,0.11859194112920059,0.10972878154859322,0.11172300418889572,0.11804669267495783,0.11661696334087411
2.820000171661377,car (2).jpg,0.07726497379123852,0.11787728880373106,0.11621769412966897,0.1160634447411829,0.1151478278813157,0.11396821456768687,0.11708507592500161,0.11574627348736209,0.11275127384081766,0.11750499814808346,0.10936668328841725,0.11859299166118999,0.10969225879815325,0.111645845967036,0.11804669267495783,0.1166453724080768
2.820000171661377,car (2).jpg,0.07715688075505266,0.1178785181496761,0.11623005464435275,0.11605010074974308,0.11515728266922029,0.11397599297475731,0.11709672118386283,0.11575226375487611,0.11284499470531878,0.11751541406099963,0.10946284049306398,0.11860459221656229,0.10978146461027438,0.11160089660893638,0.1180598131489531,0.11660880495414792
2.820000171661377,car (2).jpg,0.07728164819260218,0.11788926933875911,0.1162304793274974,0.11605622512772383,0.11516150714892234,0.113980150399226,0.1170976823088744,0.11575825402239014,0.11276756826252558,0.11751541406099963,0.10940117203011179,0.11859929485312638,0.1096894871818408,0.11175333550612157,0.11805344290178334,0.1166564812250711
2.820000171661377,car (2).jpg,0.07721349772375795,0.11788477663812359,0.11623128399029779,0.11607164783139799,0.1151577744075983,0.11397735643116909,0.11709716821875193,0.11575619766190025,0.11281175766131374,0.11751255303770936,0.10943119042291527,0.11860448045784001,0.10976192918562044,0.11156891126262083,0.1180598131489531,0.116629770890447
2.820000171661377,car (2).jpg,0.07721588936041467,0.1178877717718806,0.11623615667058905,0.11604592097352993,0.11516425641349035,0.1139818491318046,0.11710233147172111,0.11576039978985785,0.1128275826963881,0.11751849860173447,0.10946672969659921,0.11860320640840606,0.10974865224941399,0.11173089435468844,0.1180583155820746,0.11663030733231393
2.821000099182129,car (2).jpg,0.0772861408932377,0.11788904582131456,0.1162296299612081,0.11607502294481074,0.11515880258784325,0.11397887634979205,0.11709504480302868,0.1157585222433236,0.11275918635835484,0.1175144305842436,0.10938215069558033,0.1186029381874726,0.10970005955696815,0.11166363795562242,0.11805619216635134,0.11665829171637197
2.821000099182129,car (2).jpg,0.07717301871454939,0.11788598363232418,0.11623738601653409,0.11605848265391382,0.11516356350941223,0.11398276555332727,0.11710349376243279,0.1157610256387026,0.11284137372271702,0.1175205326104799,0.10946053826338509,0.11860975546953147,0.10977674839219431,0.11160422701886022,0.11806461877401099,0.11661602456760699
2.821000099182129,car (2).jpg,0.07729615447475367,0.11789675717315164,0.11623655900198925,0.11606315416850498,0.11516691627108053,0.11398663240511804,0.1171026890996324,0.11576498189747118,0.11275393369840785,0.1175219854738695,0.10938284359965844,0.11860492749272912,0.10967390801595545,0.11175094386946485,0.11805838263730796,0.11666356672806343
2.821000099182129,car (2).jpg,0.07721881743893831,0.11789094571959326,0.1162370283886228,0.11607850981694577,0.11516327293673431,0.11398419606497241,0.11710335965196605,0.11576341727535931,0.11280811432696752,0.11752071142443554,0.10942739062635787,0.11861167771955462,0.1097653490025221,0.11158283639941649,0.11806620574786732,0.1166383763120623
2.822000026702881,car (2).jpg,0.07723488834320168,0.11789695833885173,0.11624444916778197,0.11605450404340077,0.11517254891068326,0.11399099099528683,0.11711075807938076,0.115770078095207,0.11281980428931765,0.1175291827355841,0.10945629143193858,0.11861241532712165,0.1097450983220456,0.11172725102034223,0.11806701041066771,0.1166390245126515
2.822000026702881,car (2).jpg,0.0773202496552765,0.11790048991447567,0.11623904004562378,0.11608470125015989,0.11516845854144794,0.11398848759990783,0.11710449959093328,0.11576853582483958,0.11275552067226417,0.11752515942158215,0.1093814130880133,0.11861174477478799,0.1097042393331813,0.11166064282186541,0.11806519991936683,0.11666864057405478
2.822000026702881,car (2).jpg,0.0772153752702922,0.11789684658012946,0.11624655023176077,0.11606842918019643,0.11517286183510564,0.1139913039197092,0.11711189801834798,0.11577094981324075,0.11285134260074409,0.11753139555828518,0.10948074424037268,0.1186193890713917,0.10979659674127062,0.11160507638514952,0.11807445354157133,0.11662632872180088
2.822000026702881,car (2).jpg,0.0773436519317212,0.11790788834189038,0.1162470866736277,0.1160729442325764,0.11517717572178551,0.11399488019882205,0.11711145098345888,0.11577439198188687,0.11277997348069828,0.11753195435189656,0.10942423903038967,0.1186142928736559,0.10970663096983801,0.11175883403525758,0.11806841857056839,0.11667219450142317
2.822000026702881,car (2).jpg,0.07727335569540926,0.11790048991447567,0.11624520912709345,0.11608700347983879,0.11517116310252704,0.1139902533877198,0.11711095924508086,0.11577014515044036,0.1128277838620882,0.11752802044487243,0.10944978707430209,0.11861865146382468,0.1097792517875733,0.111595085155378,0.11807367123051539,0.11664586414645482
2.822000026702881,car (2).jpg,0.0772692876779184,0.1179062790162896,0.11625385925219765,0.11606391412781646,0.11518126609102083,0.11399872469886836,0.11712106223357466,0.115778325888911,0.11285344366472289,0.11753785521243276,0.10948970728989926,0.11862137837664823,0.10976521489205537,0.11175096622120931,0.11807639814333894,0.11664655705053294
2.822000026702881,car (2).jpg,0.07734421072533258,0.11790829067329058,0.11624717608060552,0.11609277022990826,0.11517661692817413,0.11399546134417789,0.11711484844861608,0.11577595660399874,0.11278719309415734,0.11753304958737487,0.1093999650359112,0.11861965729232517,0.10970591571401545,0.11168344160120983,0.11807458765203806,0.11667677660903651
2.823000192642212,car (2).jpg,0.0772280263576539,0.11790406619358852,0.11625356867951973,0.11607725811925627,0.11518061789043163,0.11399821060874589,0.11712238098649752,0.11577700713598814,0.11288207624937013,0.11753745288103257,0.10947741383044884,0.11862513346971672,0.1097817551829523,0.11161012787939642,0.11808292485271989,0.11663225193408154
2.823000192642212,car (2).jpg,0.07734423307707704,0.11791445975476024,0.11625347927254191,0.11608061088092457,0.11518555762595625,0.11400250214368131,0.11712345387023138,0.11578058341510099,0.11281153414386919,0.1175401350903672,0.10940675996622562,0.11862117721094813,0.10968416746666043,0.11177528491917668,0.11807818628289536,0.11667852004510403
2.823000192642212,car (2).jpg,0.0772821846344691,0.11790896122562423,0.11625209346438568,0.11609732998577714,0.11518064024217609,0.11400013285876905,0.11712358798069811,0.11578000226974515,0.11285617057754643,0.11753879398569989,0.10941719823088625,0.11862710042322878,0.1097486969529029,0.11161455352479857,0.11808529413763215,0.1166554753965706
2.823000192642212,car (2).jpg,0.07727538970415469,0.1179138786094044,0.11625922367086693,0.1160727430668763,0.11518937977425811,0.1140077101001394,0.11713152284997974,0.11578711012448194,0.11288592074941645,0.1175476899799931,0.10945157521385851,0.11862830741742937,0.10972397592353533,0.11175675532302323,0.11808694816672184,0.1166535754982919
2.823000192642212,car (2).jpg,0.07735478310045994,0.1179178795716619,0.11625341221730855,0.11610233677653513,0.11518569173642298,0.11400549727743832,0.11712477262315424,0.11578570196458125,0.1128115788473581,0.11754380077645787,0.10935955308193601,0.11862763686509571,0.10965461846049052,0.1116922034850363,0.11808473534402077,0.11668603023124101
2.823000192642212,car (2).jpg,0.07735102800739145,0.117920584132741,0.11625582620570972,0.11608443302922643,0.11519043030624751,0.11400873828038434,0.11712823714354481,0.11578789243553787,0.11281821731546132,0.11754762292475973,0.109375311061777,0.11862712277497324,0.10963671471318182,0.11177756479711112,0.1180842212538983,0.11668520321669616
2.823000192642212,car (2).jpg,0.07728716907348264,0.11791667257746132,0.11625560268826517,0.11610260499746859,0.11518707754457921,0.11400614547802752,0.1171279912743558,0.11578554550237007,0.1128503367722436,0.11754496306716955,0.10939004086137305,0.11863295658027607,0.10970119949593538,0.11159175474545416,0.11809074796327924,0.1166632314518966
3.078000068664551,car (2).jpg,0.07727069583781908,0.11792125468507465,0.11626279994997978,0.11607781691286766,0.1151964876289949,0.11401278394613075,0.11713610495759308,0.11579104403150607,0.11281160119910255,0.11754701942765944,0.10935202054405457,0.11863141430990866,0.10965173508545578,0.11167702665055115,0.11808842338185589,0.11669164051909929
3.078000068664551,car (2).jpg,0.07722496416866352,0.11791825955131764,0.11626112356914563,0.11608977509615125,0.11519485595164966,0.11401162165541907,0.11713516618432596,0.11578974763032766,0.11289888476120052,0.11755209327365079,0.10943646543460672,0.11863865627511218,0.1097452994877457,0.11160545636480526,0.11809673823079327,0.11664736171333333
