Timestamp,Filename,1/Fp1,2/Fp2,3/Cz,4/Pz,5/P7,6/P8,7/O1,8/O2,9/CP5,10/CP6,11/CP1,12/CP2,13/PO3,14/PO4,15/P3,16/P4
0.3960001468658447,black.png,0.04801747030228022,0.1003129750863284,0.08665447225027946,-0.07959375734254806,0.09733435926846973,0.09724917677035055,0.09822970309611596,0.09931852362376734,0.09612879557952828,0.0984223304298318,0.09587885837302904,0.09865092172037622,0.09594560068197258,0.09622497513591947,0.09720098640930491,0.0963708426202348
0.3960001468658447,black.png,0.04803025550010866,0.10030664954264755,0.08679334363858028,-0.0790917148103374,0.09732157407064129,0.0972358998341441,0.09821740963666555,0.09930665484746157,0.0961470346030038,0.09844231288937484,0.09588569800683236,0.09864488674937329,0.095880624160841,0.09622379049346334,0.09721929248801381,0.09639156268734488
0.3970000743865967,black.png,0.04806905812848307,0.10032540265624555,0.08630743906586635,-0.07981602308941163,0.09734359053892977,0.09725632932857625,0.09824210831428866,0.09930471024569396,0.09614475472506936,0.09843710493291676,0.09589255999238014,0.09865722491231262,0.09590545694893085,0.0962391684936486,0.0972175490519463,0.09638771818729856
0.3970000743865967,black.png,0.047990871726378406,0.10030374381586836,0.08696838014940979,-0.07915215392734455,0.09732311634100871,0.09723869380220101,0.09821922012796643,0.0993240892081367,0.09613556815809823,0.09842865597351265,0.09587914894570695,0.09864718897905218,0.09593281548414415,0.09622030362132832,0.0972074460634525,0.09637873278602753
0.3970000743865967,black.png,0.048065213628436756,0.10032450858646734,0.08647874283537184,-0.0795141627805427,0.09733920959701653,0.0972519036831741,0.09823790618633106,0.09930140218751457,0.09615993155955452,0.09845290761624666,0.09589962314362802,0.09865579440066748,0.09586801777696821,0.09624024137738245,0.09723263647945363,0.09640452669912895
0.3970000743865967,black.png,0.048000594735216465,0.10031858537418668,0.08678784510944428,-0.07964456285769497,0.09733923194876098,0.09725512233437567,0.09823584982584117,0.09932538560931511,0.09613556815809823,0.09842816423513463,0.09588487099228751,0.09865624143555658,0.09594991456865246,0.09623018309237756,0.09720802720880833,0.09637911276568327
0.3970000743865967,black.png,0.04801791733716933,0.10031082931886069,0.0868302910721649,-0.07911811222053912,0.0973260220677879,0.09724092897664655,0.09822380223557976,0.09931246630101995,0.09615447773390742,0.09844807963944431,0.09589195649527985,0.0986510781825874,0.0958854744893878,0.09622953489178836,0.09722617682530604,0.09639927403918196
0.3970000743865967,black.png,0.04804628170088311,0.10033186231039314,0.08646052616364076,-0.07985493747650832,0.09735018430354409,0.09726323601761294,0.0982481879887805,0.099311438120775,0.09615130378619477,0.09844389986323117,0.09589919846048336,0.09866361751122683,0.0959094802629328,0.0962442199878955,0.0972238969473716,0.09639547424262455
0.39800000190734863,black.png,0.04796700006330014,0.10030933175198219,0.08701022261503012,-0.07918686618648364,0.09732850311142244,0.09724477347669286,0.09822429397395778,0.09932813487388312,0.09614236308841265,0.09843576382824944,0.09588614504172147,0.09865429683378897,0.09593782227490213,0.09622662916500917,0.09721401747632236,0.09638686882100926
0.39800000190734863,black.png,0.04804471707877124,0.10032766018243554,0.08650809067584166,-0.07950989359735174,0.09734260706217374,0.09725664225299863,0.09824168363114401,0.09930589488815009,0.0961625914171447,0.09845681917152634,0.09590259592564057,0.09865912481059132,0.09586991767524691,0.09624368354602857,0.09723520693006599,0.09640868412359764
0.39800000190734863,black.png,0.04798342859547479,0.10032220635678844,0.08680364779277418,-0.07964485343037289,0.09734367994590759,0.09725988325594465,0.09824009665728768,0.09933025828960637,0.09614106668723424,0.09843261223228124,0.09588992248653441,0.0986609353018922,0.09595326733032075,0.096234966365691,0.09721281048212177,0.09638452188784145
0.39800000190734863,black.png,0.047995453833991744,0.1003138244526177,0.08684093050252563,-0.07911397714781489,0.09732984421608976,0.09724530991855979,0.09822746792167043,0.09931678018769982,0.09615850104790938,0.09845254998833537,0.09589595745753735,0.09865510149658936,0.09588889430628947,0.09623313352264566,0.09722986486314117,0.09640383379505084
0.39800000190734863,black.png,0.048036022250178126,0.10033566210695054,0.08646573412009885,-0.07984315810718037,0.09735393939661258,0.09726781812522628,0.09825241246848256,0.0993154390830325,0.09615624352171939,0.09844875019177797,0.09590402643728571,0.09866764082522879,0.09591285537634556,0.09624871268853101,0.09722856846196276,0.09640144215839412
0.39800000190734863,black.png,0.04796351319116511,0.10031239394097256,0.08701480472264346,-0.07919305761969776,0.09733194528006855,0.09724852856976135,0.09822867491587102,0.0993320911326517,0.09614526881519184,0.09843929540387338,0.0958890284167562,0.09865706845010143,0.09593864928944698,0.09622908785689925,0.09721665498216808,0.09639109330071131
0.3989999294281006,black.png,0.04804706401193905,0.10033280108366026,0.0865135668532332,-0.07952983135340587,0.09734734563199826,0.09726117965712305,0.09824635514573517,0.09930987349866313,0.09616867109163654,0.09846260827334026,0.09590809445477658,0.09866444452577168,0.09587297986423729,0.09624757274956379,0.09724041488652407,0.09641521083297859
0.3989999294281006,black.png,0.04798186397336292,0.10032710138882416,0.08678677222571042,-0.0796925073495516,0.09734750209420945,0.09726303485191284,0.09824382939861172,0.0993322475948629,0.09614683343730371,0.0984395859765513,0.09589573394009279,0.09866621031358365,0.09595570367046638,0.09624068841227156,0.09721848782521342,0.09639214383270071
0.3989999294281006,black.png,0.047996347903769956,0.10032272044691092,0.08682917348494214,-0.07916744252055198,0.09733728734699337,0.09725284245644122,0.09823560395665216,0.09932388804243661,0.09616583242009072,0.09845992606400562,0.09590295355355186,0.09866205288911496,0.09589378933832518,0.09624088957797165,0.09723721858706696,0.09641255097538841
0.3989999294281006,black.png,0.04803249067455419,0.10034312758959861,0.0863019628884748,-0.07989474593338322,0.09736091314088263,0.09727483657298525,0.09826101789009785,0.0993232398418474,0.09616326196947836,0.09845617097093713,0.09591041903619993,0.09867376520320954,0.09591730337349216,0.09625642404036809,0.09723574337193291,0.09640933232418684
0.3989999294281006,black.png,0.04795817112424029,0.10031916651954252,0.08696446859413011,-0.07925939759724111,0.09733791319583812,0.0972546082442532,0.09823520162525197,0.09933799199318791,0.09615300251877337,0.09844671618303254,0.09589635978893754,0.09866377397343802,0.09594421487381635,0.09623700037443643,0.09722479101714981,0.0963994528531376
0.40000009536743164,black.png,0.0480415878345475,0.10034006540060823,0.08650748717874136,-0.07957866991504071,0.09735418526580158,0.09726779577348182,0.09825491586386155,0.09931631080106626,0.0961756448359066,0.09847009610773279,0.09591497879206881,0.09867092653166372,0.09587950657361824,0.09625544056361206,0.09724808153487224,0.0964232574609825
0.40000009536743164,black.png,0.04798255687744103,0.10033425394704985,0.08680089852820617,-0.0797398706960524,0.09735414056231267,0.0972700085961829,0.09825243482022701,0.09933926604262186,0.0961543883269296,0.0984476326045552,0.09590331118146314,0.09867320640959816,0.0959620962693806,0.096248466819342,0.09722635563926169,0.0964007045508271
0.40000009536743164,black.png,0.04799017882230029,0.10032871071442494,0.08685988478182373,-0.07921847155314345,0.09734341172497413,0.09725936916582217,0.0982431364945336,0.09933021358611746,0.0961726944056385,0.09846752565712043,0.09590997200131082,0.09866945131652967,0.09590087484131751,0.09624813154317517,0.09724437114529266,0.0964203070307144
0.40000009536743164,black.png,0.04803410000015497,0.10034835789780115,0.08649729478326974,-0.07992290913139691,0.0973654281932626,0.09727986571548769,0.09826557764596673,0.09932793370818302,0.09616907342303674,0.09846256356985135,0.09591647635894732,0.09867980017421248,0.0959227348473948,0.09626194492124855,0.09724186774991367,0.0964159037370567
0.40000009536743164,black.png,0.047952538484637555,0.10032549206322337,0.08704247618227913,-0.07929866961224909,0.09734379170462987,0.09726041969781157,0.09824199655556638,0.09934302113569035,0.09615870221360948,0.09845346640985804,0.09590270768436285,0.09867090417991926,0.09595105450761968,0.09624370589777302,0.09723109420908621,0.09640571134158508
0.40000009536743164,black.png,0.048041789000247595,0.10034690503441156,0.08656931210390474,-0.07958984578726837,0.09736066727169362,0.09727425542762941,0.09826088377963112,0.09932353041452532,0.09618583723137822,0.09847928267470392,0.09592456769044014,0.09868098481666861,0.09589030246619015,0.09626440361313864,0.09725791630243258,0.0964321087517868
0.40000009536743164,black.png,0.04798617786004279,0.10034306053436524,0.08683976821181395,-0.07974018362047477,0.09736388592289519,0.09727888223873166,0.09826233664302071,0.09934746913283696,0.096163440783434,0.09845567923255912,0.09591202836180071,0.09868172242423563,0.09597164046426301,0.09625669226130155,0.09723572102018846,0.09640846060615309
0.4010000228881836,black.png,0.04800790375565335,0.10033619854881747,0.08691066794522619,-0.07920423349192542,0.09735130189076685,0.09726652172404787,0.09825055727369277,0.09933785788272118,0.09617951168769737,0.09847349357289,0.0959164316554584,0.09867635800556636,0.09590880971059915,0.09625423356941147,0.09725132253781826,0.09642564909763922
0.4010000228881836,black.png,0.048043599491548475,0.10035414699961508,0.08651754546374625,-0.0799030607823206,0.09737191019915464,0.09728558776206825,0.09827143380301402,0.09933376751348585,0.09617620362951798,0.09846859854085428,0.09592260073692807,0.0986857904417265,0.0959298874056205,0.09626708582247327,0.097248953252906,0.09642102228653697
0.4010000228881836,black.png,0.04796693300806677,0.10033154938597076,0.08704830998758196,-0.07928094467889603,0.0973510783733223,0.09726687935195916,0.09824856796843624,0.09934932432762675,0.09616732998696922,0.09846037309889473,0.09590983789084409,0.09867812379337833,0.09596008461237962,0.09625061258680971,0.09723900672662339,0.0964119027747992
0.4010000228881836,black.png,0.04805115438117437,0.10035305176413677,0.086563433595113,-0.07955553585952947,0.09736748455375249,0.09728183266899976,0.09826808104134573,0.09933200172567389,0.09619053109771383,0.09848382007882835,0.09592890392886447,0.09868574573823759,0.09589671741684883,0.0962693209969188,0.09726254311353483,0.09643606501055539
0.4010000228881836,black.png,0.047995073854336004,0.10034677092394483,0.08681877992377042,-0.07970489021597985,0.0973675292572414,0.09728362080855618,0.09826517531456654,0.09935216299917257,0.09616710646952467,0.09845912140120523,0.09591459881241307,0.09868507518590393,0.09597628962710972,0.09625890508400263,0.09723862674696765,0.09641051696664298
0.4010000228881836,black.png,0.04801067537196581,0.10033932779304121,0.08688811503507078,-0.07915385265992315,0.09735398410010149,0.09726982978222726,0.09825288185511612,0.09934062949903363,0.09618357970518823,0.0984774945351475,0.09592009734154908,0.09868116363062425,0.0959155822891691,0.09625767573805759,0.09725483176169775,0.09642857717616286
0.40199995040893555,black.png,0.04804395711945976,0.10035915379037307,0.08649975347515983,-0.07982393560694881,0.09737680523119036,0.09729088512550416,0.09827668646296102,0.09933933309785523,0.09618319972553249,0.09847496878802404,0.09592935096375357,0.09869305475867447,0.09593889515863599,0.09627401486325442,0.0972554576105425,0.09642712431277327
0.40199995040893555,black.png,0.04797871237739472,0.10033825490930735,0.08704535955731386,-0.07920231124190226,0.09735729215828087,0.09727398720669594,0.09825491586386155,0.09935737095563066,0.09617231442598276,0.09846591633151965,0.0959153364199801,0.0986847399097371,0.09596784066770561,0.09625651344734591,0.09724383470342574,0.09641697662079056
0.40199995040893555,black.png,0.048070645102339396,0.10035765622349456,0.08656484175501368,-0.07946787231777576,0.09737206666136583,0.09728672770103547,0.09827190318964758,0.09933674029549841,0.0961964543099945,0.09848989975332019,0.09593467067893394,0.09869227244761854,0.09590337823669651,0.09627495363652154,0.09726815340139311,0.09644138472573575
0.40199995040893555,black.png,0.04801277643594461,0.10035182241819172,0.08681332609812333,-0.07961890305506028,0.0973725807514883,0.09728853819233635,0.09826986918090215,0.09935625336840789,0.0961729402748275,0.09846544694488608,0.09592105846656065,0.09869144543307369,0.09598299515044631,0.0962648729997722,0.09724468406971504,0.09641619430973462
0.40199995040893555,black.png,0.048024220529105724,0.1003462344820779,0.08687944255822212,-0.07910403062153228,0.09736169545193857,0.09727731761661979,0.09826007911683073,0.0993469997462034,0.09619247569948146,0.09848589879106269,0.09592914979805348,0.09868972434875063,0.09592564057417399,0.0962670187672399,0.09726392892169106,0.09643713789428925
0.40199995040893555,black.png,0.04805866456731135,0.10036585931370966,0.08647872048362738,-0.07978482005415202,0.09738409189988279,0.09729877529129688,0.09828410724212018,0.09934606097293627,0.09618939115874661,0.09848230016020539,0.0959353859347565,0.0986990897296774,0.09594542186801694,0.09628101095926893,0.09726178315422335,0.09643369572564313
0.40199995040893555,black.png,0.047982109842551926,0.1003435299209988,0.08701703989708899,-0.07918080886373625,0.09736256716997232,0.0972803127503768,0.09826034733776419,0.09936237774638865,0.09617888583885262,0.0984726889100896,0.0959214384462164,0.09869066312201775,0.09597541790907596,0.09626283899102676,0.0972506072819957,0.09642354803366042
0.40199995040893555,black.png,0.04806409604121399,0.10036154542702978,0.0865375279232893,-0.0794556012100698,0.09737566529222313,0.09729148862260445,0.09827655235249429,0.0993404953885669,0.09619911416758468,0.09849305134928839,0.09593733053652412,0.09869475349125308,0.09590735684720955,0.09627761349411172,0.09727161792178368,0.09644467043217068
0.4030001163482666,black.png,0.04801389402316737,0.10035526458683784,0.08678927562108942,-0.07962140645043927,0.09737515120210066,0.09729182389877128,0.09827328899780381,0.09935875676378689,0.09617680712661827,0.09847011845947724,0.0959246347456735,0.0986956922645202,0.09598818075515994,0.09626923158994098,0.09724893090116155,0.0964209552313036
0.4030001163482666,black.png,0.048020018401148126,0.10035121892109143,0.08686971954938406,-0.07911451358968181,0.09736509291709577,0.09728163150329966,0.09826430359653278,0.09935254297882831,0.09619757189721727,0.09849166554113216,0.0959334860364778,0.09869477584299753,0.09593149673122128,0.09627164557834215,0.09726922628512696,0.09644254701644743
0.4030001163482666,black.png,0.04805658585507701,0.1003704861248119,0.08632337585966299,-0.07978917864432081,0.09738739995806217,0.09730197159075399,0.09828777292821085,0.09935218535091703,0.09619182749889225,0.09848565292187368,0.09593773286792431,0.09870134725586739,0.09594899814712979,0.09628282145056981,0.0972647559362359,0.0964367579146335
0.40400004386901855,black.png,0.04798427796176409,0.1003456309849776,0.0869920282950435,-0.07918311109341515,0.09736386357115073,0.09728149739283293,0.09826242604999853,0.0993668033917908,0.09618118806853151,0.09847530406419087,0.09592367362066193,0.0986923395028519,0.09597881537423317,0.09626462713058319,0.09725304362214132,0.09642593967031714
0.40400004386901855,black.png,0.04805882102952254,0.1003655910927762,0.0864737136928694,-0.07946188205026174,0.09737890629516915,0.0972952660674174,0.09828021803858496,0.0993476479467926,0.09620396449613149,0.09849892985808013,0.09594265025170448,0.09869938030235532,0.0959140847222906,0.09628322378197,0.09727649060207494,0.09645023601654006
0.4049999713897705,black.png,0.04800861901147592,0.10035890792118406,0.0866563050933248,-0.07960998470902261,0.09737810163236876,0.09729671893080699,0.0982770440908723,0.09936653517085733,0.09617971285339746,0.09847425353220148,0.09592888157712001,0.09869868739827721,0.09599354517382921,0.09627374664232095,0.09725241777329657,0.09642520206275011
0.4049999713897705,black.png,0.048019459607536744,0.10035092834841351,0.08685621909573306,-0.07911247958093638,0.0973651823240736,0.09728321847715599,0.09826631525353376,0.09935685686550819,0.09619567199893857,0.09849097263705404,0.09593332957426662,0.09869309946216338,0.09593256961495514,0.09627104208124186,0.09726813104964865,0.09644205527806941
0.40600013732910156,black.png,0.04805768109055532,0.10036979322073379,0.08629065290578042,-0.07979286668215593,0.09738706468189534,0.097302217459943,0.09828900227415589,0.09935341469686207,0.09619392856287105,0.09848732930270783,0.09594162207145954,0.09870306834019045,0.09595212739135353,0.09628557071513781,0.09726732638684826,0.09643937306873478
0.40600013732910156,black.png,0.04798152869719609,0.10034757558674522,0.08697425865820153,-0.0791904871690854,0.097366478725252,0.09728341964285608,0.0982652423697999,0.09937002204299236,0.0961819927313319,0.09847642165141364,0.09592606525731864,0.09869283124122992,0.09598078232774523,0.09626599058699496,0.09725391534017508,0.09642710196102881
0.40600013732910156,black.png,0.048059178657433824,0.10036503229916481,0.0864615096403968,-0.07946559243984132,0.09737921921959153,0.09729417083193909,0.09828108975661871,0.09934863142354863,0.09620394214438703,0.09849901926505795,0.09594370078369388,0.09869859799129939,0.09591455410892416,0.09628393903779257,0.09727671411951949,0.0964506606996847
0.40600013732910156,black.png,0.04800522154631871,0.10035839383106158,0.08664492805539704,-0.0796208923603168,0.09737821339109104,0.09729548958486195,0.09827874282345091,0.09936733983365773,0.09617931052199727,0.09847286772404525,0.09592865805967546,0.09869710042442088,0.09599318754591793,0.09627338901440967,0.09725147900002945,0.0964241068272718
0.40600013732910156,black.png,0.048014788092945584,0.10035041425829104,0.08686446688943707,-0.07912072737464039,0.09736435530952875,0.09728192207597758,0.09826530942503327,0.09935596279572997,0.09619602962684985,0.09849090558182068,0.0959340895335781,0.09869269713076319,0.09593210022832158,0.09627213731672017,0.09726777342173737,0.09644196587109159
0.40600013732910156,black.png,0.04805153436083011,0.10036988262771161,0.08630810961820001,-0.07980594245266229,0.09738608120513931,0.09730150220412043,0.09828792939042204,0.09935261003406168,0.09619227453378136,0.09848587643931823,0.0959397892284142,0.09870065435178928,0.09594931107155216,0.09628400609302594,0.09726462182576917,0.09643684732161133
0.40600013732910156,black.png,0.04797685718260493,0.1003456309849776,0.0869818806030608,-0.07919770678254447,0.09736319301881707,0.09728058097131026,0.09826285073314318,0.09936573050805694,0.09618286444936566,0.09847693574153611,0.09592695932709686,0.09869347944181912,0.09598187756322354,0.0962670187672399,0.09725391534017508,0.09642725842324
0.4070000648498535,black.png,0.04806134677664599,0.10036807213641073,0.08646519767823192,-0.07945982568977185,0.0973811861731036,0.0972965624685958,0.09828332493106424,0.09934878788575982,0.09620613261534365,0.09850053918368092,0.09594555597848367,0.09870002850294453,0.09591576110312475,0.09628559306688227,0.09727765289278661,0.0964514653624851
0.4070000648498535,black.png,0.04801060831673244,0.10036076311597385,0.08663368512793602,-0.07962104882252799,0.09738006858588083,0.0972971659656961,0.0982793463205512,0.0993670492609798,0.09618172451039844,0.09847403001475692,0.0959304909027208,0.09869817330815474,0.09599405926395169,0.09627488658128817,0.09725264129074113,0.09642466562088318
0.4070000648498535,black.png,0.048022454741293755,0.10035215769435855,0.08684182457230384,-0.07910143781917546,0.0973660316903629,0.09728344199460054,0.09826707521284524,0.09935632042364126,0.09619795187687301,0.09849202316904344,0.0959353412312676,0.09869385942147486,0.09593420129230038,0.0962730760899873,0.09726848867755994,0.0964424129059807
0.4070000648498535,black.png,0.04805359072132,0.10037191663645705,0.08623725458827669,-0.07978725639429765,0.09738780228946237,0.09730342445414358,0.09828931519857827,0.09935285590325069,0.09619632019952777,0.09848833513120832,0.09594303023136022,0.09870360478205738,0.09595302146113174,0.09628785059307225,0.097267706366504,0.09643975304839052
0.4070000648498535,black.png,0.04798146164196272,0.10034887198792362,0.08694294386421965,-0.07918887784348462,0.09736681400141883,0.09728505132020132,0.09826703050935633,0.09936966441508108,0.09618496551334446,0.09847800862526997,0.09592854630095318,0.09869495465695317,0.0959842468481358,0.09627008095623028,0.09725543525879804,0.09642855482441841
0.40799999237060547,black.png,0.0480693934046499,0.10036758039803272,0.08644756215185669,-0.07946306669271787,0.09738047091728103,0.09729738948314065,0.09828345904153098,0.09934919021716002,0.09620830073455582,0.09850179088137041,0.09594725471106227,0.09870177193901204,0.09591770570489236,0.0962882752762169,0.09727921751489849,0.09645265000494123
0.877000093460083,black.png,0.04801961606974793,0.10036293123518601,0.08661703307831682,-0.0796278437528424,0.09738161085624825,0.09730025050643093,0.09828160384674119,0.0993691056214697,0.0961849431616,0.09847684633455829,0.09593370955392236,0.09870163782854531,0.0959975014325978,0.09627875343307894,0.09725552466577586,0.09642759369940683
0.877000093460083,black.png,0.04802815443612986,0.10035526458683784,0.0868334426681331,-0.07910829980472324,0.09736887036190872,0.09728679475626884,0.0982702938640468,0.09935826502540887,0.09620253398448635,0.09849526417198946,0.09593974452492529,0.09869788273547682,0.0959385375307247,0.09627770290108954,0.0972725566950508,0.09644592212986018
0.877000093460083,black.png,0.0480685440383606,0.10037567172952554,0.0862372992917656,-0.07978848574024269,0.09739140092031967,0.09730758187861227,0.0982932491056024,0.0993560969061967,0.09620036586527418,0.0984918443550878,0.09594721000757336,0.09870724811640359,0.09595597189139984,0.09629178450009639,0.09727096972119448,0.09644317286529218
0.877000093460083,black.png,0.047995923220625306,0.10035206828738073,0.08694374852702004,-0.07919419755866498,0.09736875860318644,0.09728804645395833,0.09826852807623483,0.09937069259532602,0.09618675365290089,0.09847966265435966,0.09593060266144307,0.09869680985174296,0.09598578911850322,0.09627115383996414,0.09725659754950972,0.09642978417036345
0.877000093460083,black.png,0.048080502221644186,0.10036771450849945,0.08643495576798389,-0.0794703533614103,0.09737917451610262,0.09729649541336244,0.09828176030895237,0.09934695504271449,0.09620763018222216,0.09849973452088052,0.09594642769651743,0.09870056494481146,0.0959161857862694,0.09628666595061612,0.09727765289278661,0.09645099597585154
0.878000020980835,black.png,0.048028400305318866,0.10036246184855245,0.08659722943272942,-0.07964002545357055,0.09738089560042568,0.09729928938141935,0.09828113446010762,0.09936707161272426,0.09618454083019981,0.09847548287814652,0.09593321781554434,0.09870081081400046,0.0959958027000192,0.09627839580516766,0.09725438472680864,0.09642629729822842
0.878000020980835,black.png,0.04803772098275673,0.100354437572293,0.08683916471471366,-0.07911095966231342,0.0973670822223523,0.09728576657602389,0.09826828220704582,0.09935757212133076,0.0962012599350524,0.09849423599174452,0.0959387386964248,0.0986971451279098,0.09593679409465719,0.09627763584585618,0.09727063444502765,0.09644462572868177
0.878000020980835,black.png,0.04808240211992289,0.10037386123822466,0.08626850232702521,-0.07979056445247704,0.0973885846005183,0.09730617371871159,0.09829054454452331,0.09935397349047345,0.09619699075186143,0.09848867040737515,0.09594408076334962,0.0987045435553245,0.09595176976344225,0.09629008576751778,0.097267460497315,0.0964397083449016
0.878000020980835,black.png,0.04800613796784138,0.10034838024954561,0.08696426742843001,-0.07919459989006518,0.09736520467581805,0.09728505132020132,0.09826573410817792,0.09936792097901356,0.09618559136218921,0.09847673457583601,0.09592874746665328,0.09869477584299753,0.09598422449639135,0.0962710197294974,0.0972546529477421,0.09642743723719564
0.878000020980835,black.png,0.04808490551530188,0.10036720041837698,0.08645424532344882,-0.07945850693684899,0.09737906275738034,0.09729671893080699,0.0982827437857084,0.09934775970551488,0.09620809956885572,0.09849953335518043,0.09594651710349525,0.09870047553783363,0.09591678928336969,0.09628854349715037,0.09727763054104216,0.09645101832759599
0.8789999485015869,black.png,0.04802942848556381,0.10036237244157463,0.08660831589797925,-0.07963358815116742,0.0973803815103032,0.09729995993375301,0.0982812462188299,0.09936827860692485,0.09618579252788931,0.09847682398281384,0.09593438010625602,0.09870177193901204,0.09599736732213107,0.09628105566275784,0.0972550552791423,0.09642761605115129
0.8789999485015869,black.png,0.04803584343622248,0.10035580102870477,0.08684566907235015,-0.0791033153657097,0.09736840097527516,0.09728795704698051,0.09827036091928017,0.09936067901381004,0.09620331629554228,0.09849504065454491,0.09594059389121459,0.0986981956598992,0.09593965511794747,0.09628011688949072,0.09727222141888398,0.09644619035079365
0.8789999485015869,black.png,0.04807766355009836,0.10037457649404723,0.08626148387926624,-0.07978379187390708,0.09738965748425216,0.09730657605011178,0.09829235503582419,0.09935547105735196,0.0961994047402626,0.09848969858762009,0.09594595830988387,0.09870503529370252,0.0959538931791655,0.09629180685184084,0.09726909217466023,0.09644122826352457
0.8789999485015869,black.png,0.04800904369462057,0.10035061542399114,0.0869583218644049,-0.07919057657606322,0.09736705987060784,0.09728625831440191,0.09826765635820107,0.09937026791218137,0.09618762537093464,0.09847905915725937,0.09593151908296574,0.09869692161046524,0.09598737609235955,0.09627430543593234,0.09725644108729853,0.096429761818619
0.880000114440918,black.png,0.048086224268224745,0.10037084375272319,0.08645283716354814,-0.0794467499192655,0.09738196848415953,0.09729933408490826,0.09828569421597651,0.09935142539160555,0.09621067001946808,0.09850185793660378,0.09594935577504107,0.09870237543611234,0.09591982912061561,0.0962910245407849,0.09727957514280977,0.09645302998459697
0.880000114440918,black.png,0.04803398824143269,0.10036375824973086,0.0866013868571981,-0.0796269943865531,0.09738125322833696,0.09730016109945311,0.09828196147465247,0.09936863623483613,0.09618693246685653,0.09847655576188037,0.09593563180394551,0.09870197310471214,0.09599888724075403,0.0962819273807916,0.09725579288670932,0.09642783956859584
0.880000114440918,black.png,0.04804590172122737,0.1003557339734714,0.08684705488050638,-0.07909515697898352,0.0973677304229415,0.09728654888707983,0.09826937744252413,0.09935942731612055,0.09620300337111991,0.09849490654407818,0.09594025861504776,0.09869734629360989,0.09594007980109212,0.09627955809587933,0.09727143910782804,0.09644538568799325
0.880000114440918,black.png,0.04808975584384868,0.10037515763940306,0.08628390267895492,-0.07976734098998797,0.09738990335344117,0.09730711249197871,0.09829293618118003,0.09935674510678591,0.09620134934203022,0.09849153143066543,0.09594801467037375,0.09870682343325894,0.09595601659488875,0.09629379615709736,0.09727056738979428,0.09644272583040307
0.880000114440918,black.png,0.04801648682552419,0.10035287295018112,0.08697001182675503,-0.07918599446844989,0.09736864684446417,0.09728858289582526,0.09826895275937948,0.09937203369999334,0.09619008406282473,0.09848086964856025,0.09593386601613355,0.09869868739827721,0.09598918658366043,0.0962760712237443,0.09725816217162159,0.09643137114421978
0.880000114440918,black.png,0.04809563435264043,0.10037187193296813,0.08646879630908923,-0.07945142143385665,0.0973828849056822,0.09730063048608667,0.0982858506781877,0.0993520512404503,0.09621243580728005,0.09850293082033763,0.09595127802506423,0.09870398476171312,0.0959210361148162,0.09629180685184084,0.09728102800619937,0.09645414757181973
0.8810000419616699,black.png,0.048043890064226394,0.10036366884275304,0.08662190575860808,-0.0796339457790787,0.09738134263531478,0.09730002698898638,0.0982820955851192,0.09936847977262495,0.096187446556979,0.09847736042468076,0.09593654822546818,0.09870259895355689,0.09599962484832106,0.09628268734010308,0.09725599405240942,0.09642821954825158
0.8810000419616699,black.png,0.048055892950998894,0.10035680685720526,0.08685932598821235,-0.07911044557219095,0.09736909387935327,0.09728829232314734,0.09827078560242482,0.09936041079287658,0.09620606556011028,0.09849718642201262,0.09594345491450487,0.09870027437213354,0.09594352196973824,0.09628264263661417,0.09727409896541822,0.0964478667316278
0.8810000419616699,black.png,0.04810014940502041,0.10037996326446096,0.08627717480387387,-0.07979025152805466,0.09739446310931005,0.09731178400656987,0.0982970489021598,0.09935953907484282,0.09620490326939861,0.09849401247429997,0.09595143448727542,0.09870970680829368,0.09595952581876824,0.09629683599434329,0.09727371898576248,0.09644554215020444
0.8810000419616699,black.png,0.04802352762502761,0.10035329763332577,0.08696605556798644,-0.07920226653841335,0.09736974207994248,0.09728938755862565,0.09827062914021363,0.09937243603139354,0.09619151457446988,0.09848145079391608,0.09593556474871215,0.09870005085468898,0.09599184644125061,0.09627698764526697,0.09725979384896682,0.09643268989714264
0.8810000419616699,black.png,0.048102585745166036,0.10037269894751298,0.08647275256785782,-0.07944896274196657,0.09738436012081625,0.09730185983203171,0.09828830937007778,0.09935433111838474,0.09621569916197052,0.09850568008490564,0.09595425080707679,0.09870680108151449,0.09592472415265133,0.09629495844780904,0.09728388902948965,0.0964573662230213
0.8810000419616699,black.png,0.04804809219218399,0.1003666863282545,0.08661341209571506,-0.0796377455756361,0.09738500832140545,0.09730389384077714,0.09828602949214334,0.09937268190058254,0.09619024052503591,0.0984785897706258,0.09593887280689153,0.0987045435553245,0.09600239646463352,0.09628340259592565,0.09725838568906614,0.09643029826048592
0.8810000419616699,black.png,0.04805437303237593,0.10035577867696031,0.08685168169160863,-0.07910078961858626,0.09736835627178625,0.09728762177081368,0.09827056208498026,0.09936032138589876,0.09620351746124238,0.0984935430876664,0.09594075035342578,0.09869725688663207,0.095941890292393,0.09627814993597865,0.0972712602938724,0.09644498335659306
0.8819999694824219,black.png,0.04810377038762217,0.1003771916481485,0.08628902122843518,-0.07977176663539012,0.09739178089997541,0.09730912414897969,0.09829528311434783,0.09935750506609739,0.09620628907755484,0.09849542063420065,0.09595266383322046,0.09871086909900535,0.0959608445716911,0.09629663482864319,0.09727470246251851,0.09644712912406077
0.8819999694824219,black.png,0.048039643232779886,0.10035656098801625,0.08698076301583803,-0.0791864862068279,0.09737195490264355,0.097291712140049,0.09827246198325897,0.09937393359827204,0.09619312390007066,0.09848272484335004,0.09593665998419046,0.0987011460901673,0.09599354517382921,0.09627595946502203,0.09726024088385593,0.09643353926343194
0.8819999694824219,black.png,0.048118790759896134,0.10037538115684762,0.08648348140519636,-0.07943378590748142,0.09738527654233892,0.09730295506751002,0.09828833172182223,0.09935278884801732,0.09621654852825982,0.09850556832618336,0.09595465313847698,0.09870655521232548,0.09592521589102934,0.09629272327336351,0.09728409019518974,0.09645720976081011
0.8819999694824219,black.png,0.04806378311679162,0.10036766980501054,0.08663699318611541,-0.0796231945899957,0.09738556711501684,0.09730393854426606,0.09828661063749917,0.09937013380171464,0.09619189455412562,0.0984793944334262,0.09594021391155885,0.09870534821812489,0.09600387167976757,0.09628268734010308,0.0972594585728,0.09643087940584176
0.8830001354217529,black.png,0.04806481129703656,0.10035841618280604,0.08686766318889418,-0.07910465647037702,0.09737032322529832,0.09728902993071437,0.09827203730011431,0.0993596508335651,0.09620756312698879,0.09849593472432312,0.09594421487381635,0.09869982733724443,0.09594562303371704,0.09628009453774626,0.0972744565933295,0.0964474644002276
0.8830001354217529,black.png,0.04811288989935993,0.10038003031969432,0.08632538751666397,-0.07977795806860424,0.09739412783314322,0.09731104639900284,0.09829736182658218,0.09935844383936451,0.09620805486536681,0.09849528652373392,0.09595400493788778,0.09871156200308347,0.09596205156589169,0.09629645601468755,0.09727582004974128,0.09644744204848314
0.8830001354217529,black.png,0.048042973642703726,0.10035665039499407,0.08700141602771473,-0.07919435402087617,0.09737220077183256,0.09729215917493811,0.09827252903849233,0.09937404535699432,0.0961933027140263,0.09848178607008291,0.09593677174291274,0.0987007437587671,0.09599385809825159,0.09627580300281084,0.09726028558734484,0.09643291341458719
0.8830001354217529,black.png,0.04812737382976697,0.10037368242426901,0.08656327713290181,-0.07943646811681605,0.0973835331062714,0.09730114457620914,0.09828759411425521,0.09935053132182733,0.09621641441779309,0.09850436133198277,0.09595393788265441,0.09870552703208053,0.09592479120788469,0.09629294679080806,0.09728319612541153,0.09645609217358735
0.8830001354217529,black.png,0.04807406491924106,0.10037012849690062,0.08678033492330729,-0.07965044136648672,0.09738670705398406,0.09730570433207802,0.09828781763169976,0.09937055848485929,0.09619506850183827,0.09848120492472708,0.09594271730693785,0.09870744928210369,0.09600554806060171,0.09628680006108285,0.09726147022980097,0.09643302517330947
0.8840000629425049,black.png,0.04807761884660945,0.10036141131656305,0.08689882152066487,-0.07911420066525944,0.09737282662067731,0.09729177919528237,0.09827463010247113,0.09936152838009935,0.09621149703401292,0.09849942159645815,0.09594745587676237,0.09870338126461282,0.09594890874015197,0.09628463194187069,0.09727733996836424,0.0964504148304957
0.8840000629425049,black.png,0.04812176354190869,0.10038282428775124,0.08633390353130144,-0.07979152557748861,0.09739689944945568,0.09731350509089293,0.09830004403591681,0.09935877911553134,0.09621214523460213,0.09849785697434628,0.09595715653385598,0.09871406539846246,0.09596502434790424,0.0963006804943896,0.09727897164570948,0.09644985603688432
0.8840000629425049,black.png,0.04804496294796025,0.10036045019155147,0.0869846745711177,-0.07921547641938644,0.09737642525153462,0.09729542252962858,0.0982774464222725,0.09937674991807341,0.0961989577053735,0.09848583173582932,0.09594133149878162,0.09870496823846915,0.09599884253726512,0.0962821732499806,0.09726504650891382,0.09643686967335578
0.8840000629425049,black.png,0.04812737382976697,0.10037732575861523,0.0864851130825416,-0.07945146613734556,0.09738811521388474,0.09730577138731139,0.09829193035267954,0.09935643218236354,0.09622052713877287,0.09850751292795097,0.0959576929757229,0.0987091480146823,0.09592861335618655,0.09629808769203278,0.09728715238418012,0.09645942258351119
0.8840000629425049,black.png,0.04808396674203476,0.10037332479635773,0.08661812831379513,-0.07964983786938643,0.09738981394646334,0.09730921355595751,0.09829128215209033,0.09937529705468381,0.09619813069082865,0.09848440122418418,0.09594595830988387,0.09871089145074981,0.09600861024959209,0.0962905775058958,0.09726462182576917,0.09643619912102212
0.8840000629425049,black.png,0.048085509012402175,0.100365434630565,0.0868698983633397,-0.07910608698202216,0.09737646995502353,0.0972963165994068,0.09827865341647309,0.09936698220574644,0.0962141568916031,0.0985021485092817,0.09595027219656374,0.09870621993615865,0.09595176976344225,0.09628825292447245,0.09727997747420997,0.09645329820553043
0.8840000629425049,black.png,0.048130257204801706,0.10038369600578499,0.08630055472857412,-0.07977802512383761,0.09739730178085587,0.09731471208509351,0.09830028990510582,0.09936119310393252,0.0962116087927352,0.09849745464294608,0.09595630716756667,0.09871330543915098,0.0959637950019592,0.09630050168043396,0.09727818933465354,0.09644949840897303
0.8840000629425049,black.png,0.04805390364574237,0.10036217127587453,0.08697296225702313,-0.07920327236691384,0.09737752048701293,0.09729727772441837,0.09827863106472863,0.09937802396750736,0.0962034057025201,0.09849003386378692,0.09594560068197258,0.0987091480146823,0.09600353640360074,0.09628700122678295,0.0972691592298936,0.09644129531875793
0.8849999904632568,black.png,0.048130503073990714,0.10038293604647351,0.0864746077626476,-0.07943655752379387,0.09739325611510946,0.09731077817806938,0.09829678068122634,0.09936023197892094,0.09622595861267551,0.09851231855300886,0.09596265506299198,0.09871395363974018,0.09593391071962246,0.09630287096534622,0.09729200271272692,0.09646442937426918
0.8859999179840088,black.png,0.04808975584384868,0.10037690107547058,0.08660129745022029,-0.0796393996047258,0.09739377020523193,0.09731234280018125,0.09829476902422536,0.09937724165645143,0.09620217635657506,0.09848741870968565,0.09594935577504107,0.09871388658450682,0.09601263356359405,0.09629462317164221,0.09726833221534875,0.09643937306873478
0.8859999179840088,black.png,0.04809972472187576,0.10036755804628826,0.08685899071204552,-0.07910778571460077,0.09737874983295797,0.09729779181454085,0.09828120151534099,0.0993678539237802,0.0962156097549927,0.09850237202672625,0.0959513450802976,0.0987070469507035,0.09595371436520986,0.09628990695356214,0.09728107270968828,0.09645399110960855
0.8859999179840088,black.png,0.04813919790258383,0.10038575236627488,0.08626318261184485,-0.079781579051206,0.0973988887547122,0.09731623200371647,0.09830216745164007,0.09936206482196627,0.09621511801661468,0.098500494480192,0.09595986109493507,0.09871670290430819,0.0959669465979274,0.09630474851188046,0.09728134093062174,0.0964527170601746
0.8859999179840088,black.png,0.04805542356436533,0.10036362413926413,0.08694198273920807,-0.07920982142803924,0.09737883923993579,0.0972990658639748,0.09827930161706229,0.09937934272043022,0.09620159521121922,0.09848806691027485,0.09594428192904972,0.09870762809605933,0.09600152474659976,0.09628646478491602,0.09726728168335935,0.0964396636414127
0.8870000839233398,black.png,0.04813832618455007,0.10038150553482837,0.08644935029141311,-0.07943917267789515,0.09739073036798601,0.09730928061119087,0.09829421023061398,0.09935882381902025,0.0962253104120863,0.09851243031173114,0.09596281152520317,0.09871411010195137,0.09593337427775553,0.0963032285932575,0.0972915109743489,0.09646416115333571
0.8870000839233398,black.png,0.048097064864285576,0.10037833158711572,0.08656267363580152,-0.079642797069883,0.09739370314999857,0.09731323686995946,0.0982957972044703,0.09937806867099627,0.09620168461819704,0.09848748576491902,0.09594978045818572,0.09871411010195137,0.09601290178452751,0.09629574075886498,0.09726817575313756,0.09643928366175696
0.8870000839233398,black.png,0.04810672081789027,0.10036865328176657,0.08684817246772915,-0.07910414238025455,0.09737825809457995,0.0972982164976855,0.09828144738453,0.0993691056214697,0.09621659323174873,0.09850386959360476,0.0959528426471761,0.0987083433518819,0.09595527898732173,0.09629127040997391,0.0972822126486555,0.09645517575206468
0.8870000839233398,black.png,0.048150172609111384,0.10038758520932022,0.08626492604791236,-0.07978486475764093,0.09739915697564566,0.09731703666651687,0.09830277094874036,0.09936284713302221,0.0962156097549927,0.09850098621857002,0.09596053164726873,0.09871721699443066,0.09596768420549442,0.09630481556711383,0.09728203383469985,0.09645311939157479
0.8870000839233398,black.png,0.048072343834918,0.10036424998810888,0.08695501380622551,-0.07921301772749635,0.09737756519050184,0.0972982164976855,0.09827907809961774,0.09937896274077448,0.09620148345249695,0.09848799985504149,0.09594412546683853,0.09870727046814805,0.09600241881637797,0.09628501192152643,0.09726719227638153,0.09643937306873478
0.8870000839233398,black.png,0.048148496228277236,0.10038195256971748,0.08647163498063505,-0.07943760805578327,0.09739037274007473,0.09730948177689097,0.09829501489341437,0.09935913674344263,0.09622544452255304,0.09851207268381985,0.0959625433042697,0.0987135960118289,0.09593444716148938,0.09630266979964612,0.097291712140049,0.09646429526380244
0.8870000839233398,black.png,0.04809257216365005,0.10037775044175988,0.0865813373424217,-0.0796503519595089,0.09739276437673144,0.09731321451821501,0.09829526076260338,0.09937894038903003,0.09620159521121922,0.09848735165445228,0.09594917696108543,0.0987135960118289,0.09601270061882741,0.096293974971053,0.09726784047697073,0.09643932836524587
0.8900001049041748,black.png,0.0480940473787841,0.10036675338348787,0.08686015300275719,-0.07910114724649754,0.09737649230676798,0.0972973671313962,0.09828006157637377,0.09936776451680238,0.09621567681022607,0.09850277435812645,0.09595181446693116,0.09870733752338141,0.09595480960068817,0.09628892347680611,0.09728134093062174,0.09645448284798656
0.8900001049041748,black.png,0.048141746001451734,0.10038675819477537,0.08629047409182478,-0.07977556643194753,0.09739835231284527,0.09731699196302795,0.09830308387316274,0.09936318240918904,0.09621657088000428,0.0985015450121814,0.09596147042053585,0.09871786519501986,0.09596848886829482,0.09630436853222472,0.09728317377366708,0.0964542146270531
0.8910000324249268,black.png,0.04806615240170388,0.10036512170614263,0.08696542971914169,-0.07921346476238546,0.09737857101900232,0.09729957995409727,0.09828077683219634,0.09938092969428655,0.09620244457750853,0.09848858100039733,0.09594517599882793,0.0987080974826929,0.09600355875534519,0.09628335789243674,0.09726837691883766,0.09644002126932398
0.8910000324249268,black.png,0.048143981175897264,0.10038130436912827,0.08649005281806622,-0.07944704049194341,0.09738972453948552,0.09730883357630177,0.09829499254166991,0.09935871206029798,0.0962253104120863,0.09851158094544184,0.09596263271124753,0.09871343954961771,0.09593393307136691,0.09629907116878882,0.09729162273307118,0.0964636694149577
1.3580000400543213,black.png,0.048101065826543075,0.10037902449119383,0.0866175918719282,-0.07966016437532478,0.0973931890598761,0.09731392977403758,0.09829530546609229,0.09937809102274073,0.09620418801357604,0.09848976564285346,0.0959521944465869,0.09871623351767463,0.09601511460722859,0.09629285738383024,0.09727038857583864,0.09644149648445803
1.3580000400543213,black.png,0.04810551382368968,0.10036954735154478,0.08687758736343233,-0.07910758454890067,0.09737790046666867,0.09729955760235282,0.09828113446010762,0.09936906091798078,0.09621695085966002,0.09850393664883812,0.09595337908904303,0.09870905860770447,0.09595592718791093,0.09628735885469424,0.09728257027656678,0.09645551102823151
1.3589999675750732,black.png,0.04814661868174299,0.10038823340990942,0.08630902603972268,-0.07978397068786272,0.09739917932739012,0.09731844482641755,0.09830317328014056,0.09936349533361141,0.09621616854860408,0.0985012991429924,0.0959612469030913,0.09871790989850877,0.09596766185374997,0.0963015298606789,0.09728263733180015,0.09645385699914182
1.3589999675750732,black.png,0.04806820876219377,0.10036465231950907,0.08698963665838678,-0.07922251721888986,0.09737787811492421,0.09729881999478579,0.09827941337578457,0.09937885098205221,0.09620307042635327,0.09848806691027485,0.09594564538546149,0.09870865627630428,0.09600373756930083,0.09628224030521397,0.0972685557327933,0.09644006597281289
1.3589999675750732,black.png,0.048143020050885686,0.10038300310170688,0.08651200223112133,-0.07945557885832534,0.0973921832313756,0.09731055466062483,0.09829756299228228,0.099359449667865,0.09622893139468806,0.09851406198907638,0.09596587371419354,0.09871685936651937,0.09593739759175748,0.09630311683453523,0.09729490843950611,0.09646708923185936
1.3589999675750732,black.png,0.048104105663789,0.10038047735458343,0.0866291477238116,-0.07966917212834027,0.09739602773142192,0.09731603083801638,0.09829928407660533,0.09938189081929813,0.09620581969092128,0.09848963153238673,0.09595311086810956,0.0987175969740864,0.09601632160142917,0.09629560664839824,0.09727175203225041,0.09644254701644743
1.3600001335144043,black.png,0.04811293460284884,0.10037269894751298,0.08689296536361758,-0.07911169726988045,0.09738192378067062,0.09730235157040973,0.09828540364329859,0.09937346421163848,0.09622260585100721,0.09850885403261829,0.09595843058328993,0.09871422186067365,0.09596178334495822,0.09629489139257567,0.0972881135091917,0.09646105426085642
1.3670001029968262,black.png,0.048155604083014024,0.1003915414680888,0.0863356693191134,-0.07978792694663131,0.09740315793790316,0.09732121644273001,0.09830759892554271,0.09936760805459119,0.09621871664747199,0.0985034002069712,0.09596343737404792,0.09872027918342104,0.09596960645551758,0.09630720720377055,0.09728525248590142,0.09645640509800972
1.3670001029968262,black.png,0.04807911641348796,0.10036670867999896,0.08700610989405035,-0.07922195842527847,0.0973801356411142,0.0973009657622535,0.09828200617814138,0.09938139908092011,0.09620581969092128,0.09849106204403187,0.09594826053956276,0.09871218785192822,0.09600664329608002,0.09628941521518412,0.09727141675608358,0.09644332932750337
1.3680000305175781,black.png,0.04815511234463601,0.10038508181394122,0.08653073299297488,-0.07943995498895108,0.09739370314999857,0.0973123651519257,0.09829879233822732,0.09936157308358826,0.09622993722318855,0.09851477724489895,0.09596652191478275,0.09871775343629759,0.09593762110920204,0.09630711779679273,0.09729602602672888,0.09646784919117084
1.3680000305175781,black.png,0.04810488797484493,0.10038170670052847,0.08663098056685693,-0.0796684568725177,0.09739701120817795,0.09731674609383895,0.09829941818707207,0.09938025914195289,0.09620680316767731,0.09849106204403187,0.09595378142044322,0.09871869220956471,0.09601634395317363,0.09630018875601158,0.09727271315726199,0.09644375401064802
1.3680000305175781,black.png,0.04811063237316995,0.10037205074692378,0.08689587109039677,-0.07910530467096623,0.09738129793182587,0.0973028656605322,0.0982845989804982,0.09937225721743789,0.09622037067656168,0.09850630593375038,0.09595603894663321,0.0987123443141394,0.0959591458391125,0.09629636660770972,0.09728599009346844,0.09645899790036654
1.36899995803833,black.png,0.04816277899298418,0.10039066975005505,0.08634574995586275,-0.07978144494073927,0.09740161566753575,0.09732139525668565,0.09830652604180885,0.09936606578422377,0.09622061654575069,0.0985053001052499,0.09596509140313761,0.09872238024739984,0.0959703440630846,0.09631156579393933,0.09728715238418012,0.09645864027245525
1.371000051498413,black.png,0.04808620191648029,0.10036889915095558,0.08701060259468586,-0.07921730926243177,0.09738212494637072,0.09730402795124388,0.09828455427700929,0.09938383542106574,0.09620805486536681,0.09849320781149958,0.09595040630703047,0.09871453478509602,0.09600876671180328,0.09629337147395271,0.0972738083927403,0.09644592212986018
1.374000072479248,black.png,0.048158688623748856,0.10038637821511963,0.08654014307739057,-0.07943067901500213,0.09739464192326569,0.0973144662159045,0.0983004016638281,0.09936403177547834,0.0962301160371442,0.09851542544548815,0.0959667454322273,0.09871851339560907,0.09593764346094649,0.0963089282880936,0.09729658482034026,0.09646889972316024
1.374000072479248,black.png,0.04811391807960488,0.1003816396452951,0.08664879490718781,-0.07966134901778091,0.09739660887677776,0.09731752840489488,0.09829990992545008,0.09938186846755367,0.0962065572984883,0.09849083852658731,0.09595351319950976,0.09871846869212016,0.09601585221479561,0.09630090401183415,0.09727280256423981,0.09644382106588138
1.374000072479248,black.png,0.04811286754761548,0.1003708884562121,0.08690235309628881,-0.07911648054319388,0.09738049326902548,0.09730190453552062,0.09828397313165345,0.09937214545871562,0.09621965542073911,0.09850601536107247,0.0959555919117441,0.09871194198273921,0.09595907878387913,0.0962968806978322,0.09728554305857934,0.09645875203117753
1.374000072479248,black.png,0.04814923383584426,0.10039020036342149,0.08634557114190711,-0.0797994380950258,0.09740154861230238,0.09732059059388526,0.09830574373075292,0.09936517171444556,0.09622059419400623,0.09850521069827207,0.09596513610662652,0.09872202261948855,0.09597000878691778,0.09631315276779566,0.09728744295685804,0.09645875203117753
1.374000072479248,black.png,0.048079697558843795,0.1003683850608331,0.08700812155105132,-0.07923447540217345,0.09738243787079309,0.09730362561984368,0.09828558245725423,0.09938383542106574,0.09620687022291068,0.09849186670683226,0.09594957929248563,0.09871323838391761,0.09600796204900289,0.09629536077920924,0.09727273550900645,0.09644520687403761
1.375,black.png,0.04815614052488095,0.10038530533138577,0.08658509243549019,-0.07944292777096364,0.09739475368198797,0.09731410858799322,0.09829997698068345,0.0993632047609335,0.09623268648775656,0.09851821941354506,0.09596991937993996,0.09872110619796588,0.09594032567028113,0.09631511972130773,0.0972992670296749,0.09647245365052863
1.375,black.png,0.04809798128580824,0.10038517122091904,0.08676862260921271,-0.07969588246296436,0.09740116863264664,0.09732155171889684,0.09830458144004124,0.09938499771177742,0.09620984300492323,0.09849399012255551,0.09595738005130053,0.09872188850902182,0.09601902616250826,0.09630857066018232,0.0972763564916082,0.09644869374617264
1.375,black.png,0.04810412801553345,0.10037430827311376,0.08692036860231979,-0.07911614526702705,0.09738523183885,0.09730633018092277,0.09828857759101124,0.09937672756632895,0.09622577979871987,0.0985112009657861,0.09596160453100258,0.09871811106420887,0.09596533727232662,0.09630651429969243,0.09729168978830455,0.09646637397603679
1.375,black.png,0.0481485632835106,0.10039516245069056,0.08634476647910672,-0.07978774813267567,0.09740756123156086,0.09732718435849957,0.0983117563500114,0.09937207840348225,0.09622475161847492,0.09850892108785166,0.09596898060667283,0.09872633650616842,0.09597392034219746,0.09632095352661056,0.0972919133057491,0.09646547990625857
1.375,black.png,0.04807238853840691,0.1003714919533124,0.08701811278082285,-0.07922665229161409,0.09738626001909495,0.09730869946583504,0.09828897992241144,0.09938839517693462,0.09621218993809104,0.09849732053247935,0.09595407199312114,0.09871925100317609,0.09601299119150533,0.09630398855256898,0.09727877048000938,0.09645405816484191
1.375,black.png,0.04815225132134573,0.10039116148843306,0.08659387667106112,-0.07943085782895777,0.0974003863215907,0.09732139525668565,0.0983065036900644,0.099370200856948,0.09623695567094752,0.09852201921010247,0.09597278040323023,0.09872548713987912,0.09594327610054923,0.09632240639000016,0.09730405030298833,0.09648023205759908
1.375,black.png,0.04810189284108792,0.1003877416715314,0.08677586457441623,-0.07968928869835004,0.09740382849023682,0.09732515034975414,0.0983075542220538,0.09938841752867908,0.09621420159509202,0.09849740993945717,0.09596033048156863,0.09872618004395724,0.0960210601712537,0.09631465033467417,0.09728084919224372,0.09645598041486507
1.375999927520752,black.png,0.04809681899509657,0.10037891273247156,0.08693690889321672,-0.07912506361306472,0.09738959042901879,0.09731160519261423,0.09829340556781359,0.09938075088033091,0.09622962429876618,0.09851403963733192,0.09596424203684831,0.09872177675029954,0.09596701365316077,0.09631181166312834,0.0972957131023065,0.0964727218714621
1.375999927520752,black.png,0.04812708325708905,0.10039690588675808,0.08636517362179441,-0.07980370727821676,0.09740990816472866,0.09732944188468956,0.09831468442853504,0.09937303952849383,0.09622732206908728,0.09851012808205224,0.09597043347006243,0.09872848227363613,0.09597396504568637,0.09632406041908985,0.09729443905287255,0.0964698161446829
1.375999927520752,black.png,0.048046460514838754,0.10037395064520248,0.08701364243193178,-0.07925258031518224,0.09738936691157424,0.09731037584666918,0.09829130450383479,0.0993881046042567,0.09621572151371498,0.0984991980790136,0.09595686596117806,0.09872235789565538,0.09601518166246195,0.09630778834912639,0.09728210088993322,0.09645834969977733
1.375999927520752,black.png,0.04812558569021055,0.10039491658150156,0.0865527271095189,-0.0794526507798017,0.09740483431873731,0.09732367513462009,0.09830987880347715,0.0993718548860377,0.09624082252273829,0.09852481317815938,0.09597633433059863,0.09872921988120316,0.0959467406209398,0.09632627324179092,0.09730796185826801,0.09648474710997905
1.375999927520752,black.png,0.048085933695546826,0.10039013330818812,0.08665062775023315,-0.07969049569255063,0.097406488347827,0.09732678202709938,0.09830927530637686,0.09938864104612363,0.0962162579555819,0.09849884045110231,0.09596223037984733,0.0987285493288695,0.09602356356663269,0.09631751135796444,0.0972832631806449,0.09645890849338871
1.375999927520752,black.png,0.04808810181475899,0.1003792927121273,0.08691987686394177,-0.07912535418574264,0.09738990335344117,0.09731122521295849,0.09829257855326874,0.09937972270008597,0.0962303619063332,0.09851453137570994,0.09596455496127068,0.09872251435786657,0.09596851122003927,0.09631275043639546,0.09729678598604036,0.09647417473485169
1.377000093460083,black.png,0.04812046714073028,0.10040045981412647,0.08635390834258894,-0.07980124858632667,0.0974134397403526,0.09733230290797984,0.09831776896926987,0.09937491707502807,0.09623212769414517,0.09851506781757687,0.09597476970848676,0.0987329973260161,0.09597863656027752,0.0963288883958922,0.0972993117331638,0.09647533702556337
1.377000093460083,black.png,0.0480371845408898,0.10037757162780424,0.08701726341453354,-0.07924871346339148,0.09739303259766491,0.09731500265777143,0.09829543957655902,0.09939275376710341,0.09621782257769378,0.09850132149473685,0.0959583411763121,0.09872421309044517,0.0960168580432961,0.09630991176484964,0.09728409019518974,0.09646114366783425
1.377000093460083,black.png,0.04811476744589418,0.10039391075300107,0.0865998892903196,-0.0794492980181334,0.09740400730419246,0.0973241221695092,0.09830929765812131,0.09937176547905988,0.09624153777856086,0.09852539432351522,0.09597602140617625,0.09872955515736999,0.09594611477209505,0.09632663086970221,0.09730838654141266,0.09648588704894627
1.377000093460083,black.png,0.04806020683767877,0.10039294962798949,0.08677356234473733,-0.0797164684196077,0.09740970699902857,0.09733064887889015,0.09831294099246753,0.09939156912464728,0.09622057184226178,0.09850315433778219,0.09596571725198236,0.09873219266321571,0.09602624577596733,0.09632204876208887,0.09728721943941349,0.09646355765623542
1.377000093460083,black.png,0.04807162857909543,0.10038378541276281,0.08694332384387539,-0.07912984688637816,0.09739470897849906,0.0973165225763944,0.09829827824810485,0.09938499771177742,0.09623521223488,0.09851989579437921,0.09596907001365065,0.09872734233466891,0.09597228866485222,0.09631860659344275,0.09730152455586488,0.09647976267096552
1.377000093460083,black.png,0.048119260146529695,0.10040508662522872,0.08651045996075392,-0.07981320676961026,0.09741750775784347,0.09733735440222674,0.09832223931816093,0.09937981210706379,0.09623749211281445,0.09852043223624614,0.09597964238877801,0.09873822763421865,0.0959814975835678,0.09633481160817285,0.09730445263438853,0.09648083555469937
1.377000093460083,black.png,0.04803906208742405,0.10038365130229608,0.0870635985807894,-0.0792690535508458,0.097398486423312,0.09732030002120734,0.09830058047778374,0.09939773820611694,0.09622428223184136,0.09850708824480632,0.09596448790603732,0.09872997984051464,0.09602204364800973,0.09631675139865296,0.09729019222142604,0.09646664219697025
1.377000093460083,black.png,0.04810976065513619,0.10039923046818143,0.08661345679920397,-0.07945508711994732,0.09740986346123975,0.09732881603584481,0.09831463972504613,0.09937659345586222,0.0962461198861742,0.09852912706483925,0.0959802011823894,0.0987329973260161,0.09594919931282989,0.09633128003254891,0.09731254396588135,0.09648910570014783
1.378000020980835,black.png,0.04805620587542127,0.1003961459274466,0.08677275768193694,-0.07972683962903496,0.09741308211244132,0.09733333108822478,0.09831582436750226,0.0993940054647929,0.09622475161847492,0.0985067976721284,0.09596982997296213,0.09873567953535074,0.09602948677891335,0.09632642970400211,0.09729133216039326,0.09646637397603679
1.378000020980835,black.png,0.04805575884053216,0.10038807694769823,0.08693344437282614,-0.0791239236740975,0.09739982752797932,0.09732063529737417,0.09830366501851857,0.09938949041241293,0.09624109074367175,0.09852474612292601,0.09597461324627557,0.09873201384926007,0.09597816717364396,0.09632406041908985,0.09730704543674534,0.09648374128147856
1.378000020980835,black.png,0.04810419507076682,0.10040960167760869,0.08633996085404883,-0.0797960853333575,0.09742322980442403,0.09734207062030681,0.09832827428916387,0.09938546709841098,0.09624223068263897,0.0985251037508373,0.09598431390336917,0.09874207213426496,0.09598625850513678,0.09634039954428668,0.09730910179723523,0.09648443418555668
1.378999948501587,black.png,0.048025405171561855,0.10038637821511963,0.08701916331281224,-0.07925387671636065,0.09740219681289158,0.09732380924508682,0.0983048049574858,0.09940381788060879,0.09622803732490985,0.09851124566927501,0.09596833240608363,0.09873355611962749,0.09602646929341188,0.09632122174754403,0.09729376850053889,0.09646972673770508
1.378999948501587,black.png,0.048108777178380156,0.10040430431417278,0.08656754631609277,-0.07945303075945744,0.09741457967931982,0.09733393458532508,0.09831919948091501,0.09938271783384298,0.09625155136007683,0.09853475970444199,0.09598578911850322,0.09873827233770756,0.09595518958034391,0.0963369350238961,0.09731757310838379,0.09649371015950563
1.378999948501587,black.png,0.04806152559060163,0.10039907400597024,0.08665239353804512,-0.07970902528870408,0.09741652428108744,0.09733641562895962,0.09831971357103748,0.09939814053751714,0.09622573509523095,0.0985074011692287,0.09597083580146262,0.09873617127372876,0.09603091729055849,0.0963270332011024,0.09729218152668256,0.09646615045859223
1.380000114440918,black.png,0.048054127163186924,0.10038695936047547,0.08694600605321003,-0.07913156797070121,0.09739958165879031,0.09731996474504051,0.09830310622490719,0.09938931159845729,0.09624084487448274,0.09852380734965889,0.09597441208057547,0.09873141035215978,0.0959783012841107,0.09632350162547847,0.09730684427104525,0.09648208725238887
1.380000114440918,black.png,0.048096103739274,0.10040872995957494,0.08634543703144038,-0.07980849055153019,0.0974231403974462,0.09734171299239552,0.09832811782695268,0.09938352249664337,0.096243214159395,0.09852476847467047,0.09598480564174719,0.09874209448600942,0.09598643731909243,0.09633979604718639,0.0973098170530578,0.09648336130182282
1.380000114440918,black.png,0.04802187359593792,0.10038633351163072,0.0870176880976782,-0.07926422557404346,0.09740233092335832,0.09732418922474256,0.09830433557085223,0.09940167211314108,0.09622618213012006,0.09850874227389601,0.09596636545257156,0.09873143270390423,0.09602443528466645,0.0963192324422875,0.09729182389877128,0.09646650808650352
1.38100004196167,black.png,0.048098920059075366,0.10040104095948231,0.08656202543521231,-0.07944659345705431,0.09741196452521855,0.09733138648645717,0.09831732193438077,0.09937902979600785,0.09625059023506526,0.0985333068410524,0.09598447036558036,0.09873749002665162,0.09595438491754352,0.09633599625062898,0.09731665668686112,0.09649169850250465
1.38100004196167,black.png,0.04805520004692078,0.1004005492211043,0.08662385036037569,-0.07970761712880339,0.09741797714447703,0.09733795789932703,0.09832132289663827,0.09939974986311792,0.09622859611852123,0.09851008337856333,0.09597333919684162,0.09873912170399686,0.09603375596210431,0.09632929072729239,0.09729472962555047,0.09646800565338202
1.38100004196167,black.png,0.048052406078863866,0.10038910512794318,0.08693237148909229,-0.07912653882819877,0.09740157096404684,0.09732188699506367,0.09830534139935272,0.09939147971766946,0.09624261066229471,0.0985253049165374,0.09597575318524279,0.09873315378822729,0.09598046940332286,0.09632394866036757,0.09730787245129019,0.09648257899076688
1.38100004196167,black.png,0.04809708721603003,0.10041047339564245,0.08630822137692229,-0.07980205324912706,0.09742421328118006,0.09734260706217374,0.09832919071068653,0.0993851094704997,0.09624363884253966,0.09852523786130403,0.09598509621442511,0.09874256387264298,0.09598652672607025,0.09633970664020856,0.09730968294259107,0.09648284721170035
1.38100004196167,black.png,0.04801688915692438,0.10038798754072041,0.08699678921661248,-0.07925944230073002,0.0974039402489591,0.0973251727014986,0.09830641428308658,0.09940354965967532,0.09622917726387707,0.09851202798033094,0.0959696958624954,0.09873480781731699,0.09602836919169058,0.09632104293358838,0.09729461786682819,0.09646878796443796
1.38100004196167,black.png,0.04810314453877742,0.10040370081707249,0.08653725970235583,-0.0794351940673821,0.09741422205140854,0.09733328638473587,0.09831953475708184,0.09938182376406476,0.09625121608391,0.09853442442827516,0.09598574441501431,0.09873811587549637,0.09595518958034391,0.09633492336689513,0.09731692490779459,0.09649122911587109
1.38100004196167,black.png,0.04806666649182635,0.10040189032577161,0.08658466775234554,-0.07969878818974355,0.09741884886251079,0.09733813671328267,0.09832201580071638,0.0993990569590398,0.09623127832785587,0.09851274323615351,0.0959764460893209,0.09874155804414249,0.09603623700573885,0.09633170471569356,0.09729687539301818,0.09646954792374944
1.38100004196167,black.png,0.04806740409939338,0.10039362018032315,0.08691417716910567,-0.07913018216254498,0.09740528135362642,0.0973258209020878,0.09830898473369894,0.09939465366538211,0.09624542698209608,0.0985283000502944,0.09597903889167772,0.09873630538419549,0.09598393392371343,0.09632779316041389,0.09731035349492473,0.09648474710997905
1.3819999694824219,black.png,0.04811364985867141,0.10041293208753253,0.08629058585054705,-0.0798049366241618,0.09742660491783678,0.09734461871917471,0.0983313588298987,0.0993870540722673,0.09624629870012984,0.09852749538749402,0.09598813605167103,0.09874502256453306,0.09598943245284944,0.0963438417129328,0.09731209693099224,0.0964847247582346
1.3819999694824219,black.png,0.048030546072786576,0.10039002154946584,0.08697394573377916,-0.0792658572513887,0.09740639894084918,0.09732702789628839,0.09830887297497666,0.09940433197073126,0.09623237356333418,0.09851433021000984,0.0959730486241637,0.09873715475048479,0.09603167724986997,0.09632629559353538,0.09729752359360738,0.0964706208074833
1.3819999694824219,black.png,0.04810743607371284,0.10040790294503009,0.08651307511485519,-0.0794393961953397,0.09741867004855514,0.0973374214574601,0.09832389334725063,0.09938477419433286,0.09625570878454552,0.09853786659692128,0.09599017006041646,0.09874175920984259,0.09596017401935744,0.09634319351234359,0.09732135055319674,0.09649482774672839
1.8359999656677246,black.png,0.048065548904603586,0.10040486310778417,0.08654908377517269,-0.07970359381480144,0.0974220451619679,0.09734216002728463,0.0983248097687733,0.099401962685819,0.09623215004588963,0.09851296675359807,0.09597734015909912,0.09874182626507595,0.09603744399993944,0.09633610800935126,0.09729785886977421,0.09646990555166073
1.8359999656677246,black.png,0.04806409604121399,0.10039252494484484,0.08688742213099267,-0.07911864866240605,0.09740445433908157,0.09732559738464325,0.09830856005055429,0.09939337961594816,0.09624578461000736,0.09852836710552777,0.09597944122307792,0.09873599245977312,0.09598558795280313,0.09633224115756049,0.09731104639900284,0.09648510473789033
1.8359999656677246,black.png,0.04811472274240527,0.10041434024743322,0.08626099214088823,-0.07978484240589648,0.09742812483645974,0.09734741268723163,0.0983336610595776,0.0993889092670571,0.09624710336293023,0.09852836710552777,0.09598889601098251,0.09874515667499979,0.09599130999938368,0.09634904966939088,0.09731328157344837,0.09648579764196845
1.8370001316070557,black.png,0.04803781038973455,0.10038966392155456,0.08695561730332581,-0.07925085923085919,0.0974058401472378,0.09732789961432214,0.09830842594008755,0.0994053601509762,0.09623156890053379,0.09851372671290955,0.09597228866485222,0.09873648419815113,0.09603214663650353,0.09633022950055951,0.09729698715174045,0.09647017377259419
1.8370001316070557,black.png,0.0481169579168508,0.10040600304675139,0.08650330740252822,-0.07943619989588259,0.09741652428108744,0.09733652738768189,0.09832201580071638,0.09938390247629911,0.09625291481648861,0.09853536320154228,0.09598748785108183,0.09873936757318587,0.09595793884491191,0.0963442887478219,0.09731860128862874,0.09649241375832722
1.8370001316070557,black.png,0.04807301438725166,0.10040218089844953,0.08652782726619569,-0.07970477845725757,0.09741936295263326,0.09734021542551702,0.09832302162921687,0.09940075569161841,0.09623235121158973,0.0985133467332538,0.09597792130445496,0.0987422509482206,0.09603784633133963,0.09634151713150944,0.0972980153319854,0.09647046434527211
1.8370001316070557,black.png,0.04807057804710603,0.10039451425010136,0.08688339881699071,-0.0791353230637697,0.09740706949318284,0.09732796666955551,0.09831126461163338,0.09939742528169457,0.09624875739201992,0.09853091520439568,0.0959825481155572,0.09873867466910775,0.09598858308656014,0.0963400866198643,0.09731379566357085,0.09648765283675824
1.8370001316070557,black.png,0.04812008716107454,0.10041688834630112,0.08624516710581387,-0.07980744001954079,0.09743103056323893,0.09735013960005517,0.09833627621367887,0.09939253024965886,0.09624884679899774,0.09853022230031756,0.0959909523714724,0.09874692246281176,0.09599231582788417,0.09635535286132728,0.0973146673816046,0.09648745167105814
1.8370001316070557,black.png,0.04804520881714926,0.10038975332853238,0.08693532191936039,-0.07926867357119007,0.09740579544374889,0.09732807842827779,0.09830813536740964,0.09940542720620957,0.0962303619063332,0.09851251971870896,0.09597112637414054,0.098735053686506,0.09603085023532512,0.09633391753839464,0.09729542252962858,0.09646907853711588
1.8370001316070557,black.png,0.04811727084127317,0.10040631597117376,0.08648851054769881,-0.07943997734069554,0.09741668074329862,0.09733690736733763,0.09832181463501628,0.09938446126991049,0.09625530645314533,0.09853804541087692,0.09599017006041646,0.09874155804414249,0.09595995050191289,0.09635202245140344,0.09732105998051882,0.09649496185719512
1.8380000591278076,black.png,0.048072701462829284,0.10040399138975041,0.08651003527760927,-0.07970824297764814,0.09742103933346741,0.09734195886158453,0.0983246086030732,0.09940272264513048,0.09623080894122231,0.09851169270416411,0.0959764460893209,0.09874073102959764,0.09603608054352766,0.09634464637573319,0.09729645070987353,0.0964687656126935
1.8380000591278076,black.png,0.04807062275059494,0.10039245788961147,0.08688422583153556,-0.07913246204047943,0.09740398495244801,0.09732544092243206,0.09830822477438746,0.09939469836887102,0.09624573990651845,0.09852796477412758,0.09597975414750029,0.09873579129407302,0.09598596793245887,0.09634147242802053,0.09731064406760265,0.0964847694617235
1.8380000591278076,black.png,0.0481199083471189,0.10041411672998866,0.08626242265253337,-0.07980419901659477,0.09742725311842598,0.09734685389362024,0.09833234230665473,0.09938899867403492,0.096248220950153,0.09852885884390579,0.09599003594994973,0.09874591663431127,0.0959913547028726,0.09635866091950666,0.09731397447752649,0.09648657995302438
1.8380000591278076,black.png,0.04803805625892356,0.10039082621226623,0.08696095937025063,-0.07927003702760184,0.09740657775480482,0.09732843605618907,0.09830967763777705,0.09940654479343233,0.09623033955458875,0.09851196092509758,0.09597108167065163,0.09873460665161689,0.09603123021498086,0.0963375385209964,0.09729508725346175,0.09646869855746014
1.8380000591278076,black.png,0.04811566151567239,0.100405198383951,0.08652293223415998,-0.07943441175632616,0.0974152949351424,0.09733561096615923,0.09832071939953797,0.09938332133094327,0.09625298187172197,0.0985348044079309,0.09598771136852638,0.09873871937259666,0.09595764827223399,0.09635338590781521,0.09731837777118418,0.09649248081356059
1.8380000591278076,black.png,0.048076657721597874,0.10040155504960478,0.08654130536810224,-0.0797139650242287,0.09741882651076633,0.09733954487318336,0.09832264164956113,0.09939979456660683,0.09622868552549906,0.09850916695704066,0.09597485911546458,0.09873854055864102,0.09603418064524896,0.0963459874804005,0.09729450610810592,0.0964666198452258
1.8389999866485596,black.png,0.04807048864012821,0.10038946275585446,0.08689428411654045,-0.07911719579901645,0.09740201799893594,0.09732329515496435,0.09830572137900846,0.09939136795894718,0.09624397411870649,0.09852572959968205,0.09597841304283297,0.09873460665161689,0.09598500680744729,0.09634310410536577,0.09730919120421305,0.09648309308088936
1.8389999866485596,black.png,0.04812232233552007,0.10041400497126639,0.08623658403594303,-0.07978819516756477,0.0974283930573932,0.09734810559130974,0.09833334813515522,0.09939018331649105,0.09624817624666408,0.09852843416076114,0.0959909523714724,0.09874647542792266,0.09599142175810596,0.09636261717827525,0.09731455562288233,0.09648709404314686
1.8389999866485596,black.png,0.048043219511892735,0.10039011095644367,0.08695490204750324,-0.07925662598092865,0.09740718125190512,0.09732933012596728,0.09831086228023318,0.09940799765682193,0.09623147949355597,0.09851155859369738,0.09597275805148578,0.09873619362547321,0.09603335363070412,0.09634229944256538,0.09729680833778481,0.09646945851677162
1.8389999866485596,black.png,0.04811937190525197,0.10040555601186228,0.0865232228068379,-0.07942638748006671,0.09741685955725427,0.09733730969873783,0.09832304398096132,0.09938589178155563,0.09625512763918968,0.09853594434689812,0.095989901839483,0.09874115571274229,0.09596122455134684,0.09635841505031766,0.09732070235260754,0.09649420189788364
1.8389999866485596,black.png,0.04807290262852938,0.1004043490176617,0.08653549391454386,-0.07971642371611878,0.09742159812707879,0.0973428752831072,0.09832539091412913,0.09940348260444196,0.09623275354298992,0.09851189386986421,0.09597852480155525,0.09874251916915407,0.09603905332554022,0.09635255889327037,0.09729832825640777,0.09647010671736082
1.8389999866485596,black.png,0.04806963927383891,0.10039433543614572,0.08690483413992335,-0.07911925215950634,0.097406488347827,0.09732814548351115,0.0983098564517327,0.0993969111915721,0.09624683514199676,0.09852738362877174,0.09598151993531226,0.09873728886095152,0.09598927599063825,0.09634860263450178,0.09731200752401442,0.09648530590359043
1.8389999866485596,black.png,0.04812241174249789,0.10041434024743322,0.08627136335031549,-0.07978613880707489,0.09742823659518202,0.09734756914944281,0.09833395163225551,0.09939009390951323,0.09624728217688587,0.09852642250376016,0.09598994654297191,0.09874511197151088,0.09599093001972794,0.09636360065503129,0.09731370625659302,0.09648510473789033
1.8399999141693115,black.png,0.04803861505253494,0.10039073680528841,0.08695698075973758,-0.07926731011477829,0.09740693538271611,0.09732868192537808,0.09830961058254369,0.0994070588835548,0.09623132303134478,0.09851113391055273,0.09597289216195251,0.09873639479117331,0.0960343594592046,0.09634446756177754,0.09729683068952927,0.09646912324060479
1.8399999141693115,black.png,0.048116443826728326,0.10040517603220654,0.08652116644634801,-0.0794328918377032,0.09741612194968724,0.09733639327721516,0.09832179228327183,0.09938484124956623,0.09625398770022246,0.09853413385559724,0.09598887365923806,0.09874001577377507,0.09596097868215783,0.09635946558230706,0.09731985298631823,0.09649295020019415
1.8399999141693115,black.png,0.04807285792504047,0.10040367846532804,0.08653118002786399,-0.07972299512898864,0.09742130755440087,0.09734258471042928,0.09832472036179547,0.09940252147943038,0.0962320159354229,0.0985105974686858,0.09597801071143278,0.09874198272728714,0.09603840512495102,0.09635430232933788,0.09729779181454085,0.09646939146153825
1.8399999141693115,black.png,0.048069751032561184,0.10039125089541089,0.08689750276774201,-0.07912238140373008,0.09740371673151454,0.09732573149510998,0.09830795655345399,0.09939494423806003,0.09624480113325133,0.09852496964037057,0.0959795976852891,0.09873567953535074,0.09598775607201529,0.09634866968973514,0.09731012997748018,0.09648313778437827
1.8399999141693115,black.png,0.04812576450416619,0.10041346852939946,0.08626311555661148,-0.079789335106532,0.09742716371144816,0.09734607158256431,0.0983328563967772,0.099388953970546,0.09624770686003052,0.09852590841363769,0.09599037122611656,0.09874529078546652,0.09599046063309438,0.09636525468412098,0.09731384036705976,0.09648481416521242
1.8399999141693115,black.png,0.04804409122992649,0.10039104972971079,0.08696089231501726,-0.07927341214101459,0.0974071365484162,0.09732870427712254,0.0983096552860326,0.09940667890389907,0.09623337939183467,0.09851229620126441,0.0959753508538426,0.09873840644817429,0.09603612524701657,0.09634775326821247,0.09729877529129688,0.09647026317957201
1.8399999141693115,black.png,0.04812377519890967,0.10040785824154118,0.08652849781852935,-0.07943271302374756,0.09741873710378851,0.09733811436153822,0.09832548032110695,0.09938604824376682,0.09625637933687918,0.09853583258817585,0.09599142175810596,0.09874218389298724,0.09596296798741435,0.0963634441928201,0.09732228932646386,0.09649426895311701
1.8410000801086426,black.png,0.04808756537289206,0.10040463959033961,0.08652074176320336,-0.07972607966972348,0.09742170988580107,0.09734245059996255,0.09832561443157369,0.09940214149977464,0.09623217239763408,0.09851088804136372,0.0959781001184106,0.09874191567205377,0.09603800279355082,0.09635575519272747,0.09729819414594104,0.09646892207490469
1.8410000801086426,black.png,0.04808307267225655,0.1003938436977677,0.08690025203231001,-0.07912504126132026,0.09740619777514908,0.09732745257943304,0.09830972234126596,0.09939662061889418,0.09624652221757439,0.09852637780027125,0.09598109525216761,0.09873702064001806,0.0959890524731937,0.09635092721592513,0.09731176165482541,0.09648407655764539
1.8410000801086426,black.png,0.048130972460624276,0.10041521196546697,0.08627735361782951,-0.07978870925768725,0.09742922007193805,0.0973483291087543,0.09833489040552264,0.09939058564789124,0.09625043377285407,0.09852914941658371,0.09599300873196229,0.09874812945701235,0.09599260640056209,0.09636925564637848,0.09731679079732786,0.09648758578152487
1.8410000801086426,black.png,0.04805332250038653,0.10039265905531157,0.08697606914950241,-0.0792730545131033,0.09740914820541718,0.09733093945156807,0.0983128068820008,0.09940929405800034,0.09623463108952417,0.0985143525617543,0.09597669195850991,0.09873997107028616,0.0960373098894727,0.09635068134673612,0.09730027285817539,0.09647196191215061
1.8410000801086426,black.png,0.04813229121354714,0.1004089981805084,0.08654521692338192,-0.07943213187839172,0.09741949706309999,0.09733943311446108,0.09832608381820725,0.09938886456356819,0.0962579216072466,0.09853813481785474,0.09599347811859585,0.09874441906743277,0.09596408557463712,0.09636628286436592,0.09732418922474256,0.09649641472058472
1.8410000801086426,black.png,0.048090314637460066,0.10040667359908505,0.08655552107757582,-0.07972974535581415,0.09742441444688016,0.09734466342266362,0.09832856486184179,0.09940453313643136,0.09623492166220209,0.09851453137570994,0.0959816987492679,0.09874562606163335,0.09604064029939655,0.09636042670731863,0.09730130103842033,0.09647218542959517
1.8410000801086426,black.png,0.048082268009456156,0.10039451425010136,0.0869103103173149,-0.07912673999389887,0.09740747182458304,0.09732890544282263,0.09831206927443377,0.09939789466832813,0.09624772921177498,0.09852892589913916,0.09598319631614641,0.09873934522144141,0.09599093001972794,0.09635539756481619,0.09731334862868174,0.09648606586290191
1.8420000076293945,black.png,0.04813229121354714,0.10041606133175628,0.08627207860613806,-0.07979277727517811,0.09743053882486091,0.09735016195179963,0.09833645502763451,0.09939161382813619,0.09625128313914337,0.09853111637009578,0.09599437218837406,0.09874958232040194,0.09599379104301822,0.0963731448499137,0.09731799779152844,0.09648888218270328
1.8420000076293945,black.png,0.04804927683464012,0.10039263670356711,0.08695555024809244,-0.07927439561777062,0.09741001992345094,0.09733223585274647,0.09831314215816762,0.09940902583706687,0.09623512282790218,0.09851522427978805,0.09597718369688793,0.09874048516040863,0.09603820395925092,0.09635407881189333,0.09730089870702013,0.09647209602261735
1.8420000076293945,black.png,0.048126882091388955,0.1004089981805084,0.08651832777480219,-0.07941876553520745,0.09742068170555612,0.09734055070168385,0.0983267543705409,0.09938759051413423,0.09625948622935847,0.09853996766090008,0.09599493098198544,0.09874562606163335,0.09596576195547127,0.09637061910279025,0.09732559738464325,0.09649728643861848
1.8420000076293945,black.png,0.048091029893282636,0.1004083499799192,0.08649573016115787,-0.07971727308240809,0.09742620258643658,0.09734736798374272,0.09833026359442039,0.0994049131160871,0.09623675450524742,0.09851611834956626,0.09598362099929106,0.09874669894536721,0.09604238373546406,0.09636480764923187,0.09730313388146566,0.09647307949937338
1.8420000076293945,black.png,0.04808097160827775,0.10039538596813512,0.08688699744784802,-0.07912796933984391,0.09740816472866115,0.09732995597481203,0.09831298569595644,0.09939746998518348,0.09624875739201992,0.09852990937589519,0.09598431390336917,0.09873992636679725,0.0959922487726508,0.0963585938642733,0.09731455562288233,0.09648631173209092
1.8420000076293945,black.png,0.04813709683860503,0.10041637425617865,0.0862467987831591,-0.07979492304264582,0.09742980121729389,0.09734973726865498,0.09833560566134521,0.09938969157811303,0.0962499196827316,0.09852977526542846,0.0959928522697511,0.09874777182910106,0.09599236053137308,0.09637332366386935,0.09731665668686112,0.09648678111872448
1.8429999351501465,black.png,0.04805899984347818,0.10039270375880048,0.08692711882914529,-0.07927761426897219,0.09740914820541718,0.09733105121029034,0.0983126057163007,0.09940638833122115,0.09623398288893496,0.09851477724489895,0.09597633433059863,0.09873968049760824,0.09603806984878419,0.09635510699213827,0.09729995993375301,0.09647088902841676
1.8429999351501465,black.png,0.04813689567290493,0.1004087970148083,0.08650243568449446,-0.07941112123860374,0.09741976528403345,0.09734039423947266,0.09832594970774051,0.09938799284553443,0.09625767573805759,0.09853885007367731,0.09599341106336248,0.09874419554998821,0.09596482318220415,0.09637097673070154,0.09732423392823147,0.0964956771130177
1.8429999351501465,black.png,0.04810061879165397,0.10040611480547366,0.08647188084982406,-0.07971459087307345,0.09742425798466897,0.09734484223661927,0.09832887778626416,0.0994038625840977,0.09623458638603526,0.09851424080303202,0.09598127406612325,0.09874502256453306,0.0960410649825412,0.09636476294574296,0.09730092105876459,0.0964706655109722
1.8440001010894775,black.png,0.04809650607067419,0.1003936425320676,0.08687363110466374,-0.0791172181507609,0.09740695773446056,0.09732816783525561,0.09831159988780021,0.09939793937181704,0.09624596342396301,0.09852747303574956,0.09598147523182335,0.09873773589584063,0.09599126529589477,0.09635823623636201,0.09731194046878106,0.09648358481926737
1.8440001010894775,black.png,0.04815095492016732,0.10041389321254411,0.0862252964049931,-0.07978712228383092,0.09742778956029291,0.09734660802443124,0.0983339069287666,0.09938879750833482,0.09624804213619735,0.0985287023816946,0.0959913547028726,0.09874672129711166,0.09599086296449458,0.0963735471813139,0.0973150697130048,0.09648528355184598
1.8440001010894775,black.png,0.048069885143027916,0.10039098267447742,0.08691426657608349,-0.07927984944341772,0.09740756123156086,0.09732926307073392,0.09831106344593328,0.09940582953760976,0.09623170301100052,0.09851348084372054,0.09597463559802002,0.09873871937259666,0.09603652757841677,0.0963550399369049,0.09729797062849649,0.09646907853711588
1.8440001010894775,black.png,0.04815003849864465,0.10040562306709565,0.08649939584724854,-0.07942050897127496,0.09741645722585407,0.09733641562895962,0.09832317809142806,0.09938361190362119,0.09625396534847801,0.0985364584370206,0.09599005830169419,0.09874171450635368,0.09596151512402476,0.09636912153591175,0.09732065764911862,0.09649241375832722
1.8450000286102295,black.png,0.048115929736605854,0.1004045948868507,0.08647968160863896,-0.07972518559994526,0.09742177694103443,0.09734294233834057,0.09832677672228536,0.09940039806370712,0.09623203828716735,0.09851332438150935,0.09597984355447811,0.09874374851509911,0.09603905332554022,0.0963648970562097,0.0972988646982747,0.09646925735107152
1.8450000286102295,black.png,0.04810432918123355,0.10039218966867801,0.0868780567500659,-0.07911089260708005,0.09740449904257048,0.09732671497186601,0.0983103034866218,0.09939498894154894,0.0962461645896631,0.09852892589913916,0.09598252576381275,0.09873887583480785,0.09599231582788417,0.09636116431488566,0.09731247691064798,0.0964845235925345
1.8450000286102295,black.png,0.048150127905622474,0.10041601662826737,0.08623106315506257,-0.07977650520521465,0.09742977886554943,0.09734984902737726,0.09833629856542332,0.09939067505486907,0.09624862328155319,0.09853002113461747,0.09599256169707318,0.09874748125642314,0.09599126529589477,0.09637692229472665,0.0973159190792941,0.09648624467685755
1.8450000286102295,black.png,0.04806778407904912,0.10039078150877732,0.08692059211976434,-0.07927352389973687,0.09740780710074987,0.09732977716085639,0.09831119755640001,0.09940598599982095,0.0962332676331124,0.09851477724489895,0.09597669195850991,0.09873974755284161,0.09603820395925092,0.0963585938642733,0.09729987052677519,0.09647006201387191
1.8450000286102295,black.png,0.048146506923020714,0.10040725474444089,0.08651886421666911,-0.07941340111653818,0.09741875945553297,0.09733876256212742,0.09832527915540686,0.09938566826411108,0.09625700518572393,0.09853936416379978,0.09599381339476268,0.09874462023313287,0.09596435379557058,0.09637462006504775,0.09732407746602029,0.09649498420893958
1.8450000286102295,black.png,0.04811572857090576,0.10040727709618534,0.08648267674239597,-0.07972581144879001,0.09742490618525818,0.09734555749244184,0.09832941422813109,0.09940249912768592,0.0962339158337016,0.09851504546583241,0.09598216813590146,0.09874571546861118,0.09604023796799635,0.09636836157660027,0.09730107752097578,0.09647035258654983
1.8450000286102295,black.png,0.048100976419565254,0.10039321784892295,0.08687669329365412,-0.07913129974976775,0.09740619777514908,0.0973281231317667,0.09831110814942219,0.09939552538341587,0.09624607518268528,0.09852928352705044,0.09598326337137977,0.0987395016836526,0.09599227112439526,0.0963634441928201,0.09731249926239244,0.09648423301985658
1.8450000286102295,black.png,0.0481578169057151,0.10041409437824421,0.08623812630631045,-0.07979317960657831,0.09742772250505954,0.09734797148084301,0.09833381752178878,0.09938861869437918,0.09624804213619735,0.09852997643112855,0.09599256169707318,0.09874748125642314,0.09599008065343864,0.09637857632381634,0.09731538263742717,0.09648535060707934
1.8470001220703125,black.png,0.0480809939600222,0.10039033447388822,0.08692635886983381,-0.07928577265569837,0.09740771769377204,0.09733009008527876,0.09831119755640001,0.09940544955795402,0.0962320159354229,0.09851486665187677,0.09597646844106536,0.09873999342203062,0.0960373098894727,0.09636073963174101,0.09729870823606351,0.0964695702754939
1.8470001220703125,black.png,0.04815835334758203,0.10040658419210723,0.08652675438246184,-0.07940580152342337,0.09741907237995534,0.09734005896330583,0.09832561443157369,0.09938685290656721,0.0962568710752572,0.09854079467544492,0.09599472981628535,0.09874631896571147,0.0959652478653488,0.09637895630347208,0.0973241221695092,0.09649621355488462
2.315999984741211,black.png,0.04812312699832046,0.10040542190139555,0.08650717425431899,-0.07972024586442064,0.09742416857769115,0.09734689859710915,0.09832981655953128,0.09940484606085373,0.0962335135023014,0.09851674419841101,0.09598261517079057,0.09874694481455622,0.0960402156162519,0.09637363658829172,0.09730063048608667,0.09647176074645052
2.315999984741211,black.png,0.048117159082550896,0.10039212261344464,0.08689665340145271,-0.0791235213426973,0.09740592955421562,0.09732953129166738,0.09831130931512229,0.09939914636601763,0.09624643281059657,0.09853033405903984,0.09598402333069125,0.09874057456738645,0.09599352282208476,0.09636722163763305,0.09731254396588135,0.09648479181346796
2.315999984741211,black.png,0.04816930570236513,0.10041369204684401,0.08624983862040503,-0.07979302314436712,0.0974283930573932,0.09734848557096548,0.09833477864680036,0.09939047388916897,0.09624922677865348,0.09853122812881805,0.09599392515348495,0.09874882236109046,0.09599162292380606,0.0963821973064181,0.09731600848627192,0.09648633408383538
2.315999984741211,black.png,0.04809154398340511,0.10039248024135593,0.08693552308506049,-0.0792899077284226,0.0974100422751954,0.09733210174227974,0.09831334332386772,0.09940994225858954,0.0962330664674123,0.09851551485246597,0.09597776484224377,0.09874113336099784,0.09603927684298477,0.09636442766957613,0.09729893175350807,0.09646995025514964
2.315999984741211,black.png,0.04816608705116356,0.10040591363977357,0.08653071064123043,-0.07941069655545908,0.09741799949622149,0.09733793554758258,0.09832518974842903,0.09938792579030106,0.0962570722409573,0.09854007941962235,0.09599524390640782,0.09874589428256682,0.09596598547291582,0.09638036446337277,0.09732318339624207,0.09649505126417295
2.315999984741211,black.png,0.04812994428037933,0.10040779118630781,0.08649193036460047,-0.07973209228898195,0.0974262919934144,0.09734716681804262,0.09833086709152068,0.09940612011028768,0.09623337939183467,0.09851529133502142,0.0959829504469574,0.09874614015175583,0.09604039443020754,0.09637390480922518,0.09729966936107509,0.09647008436561637
2.317000150680542,black.png,0.04812008716107454,0.10039087091575515,0.08689504407585193,-0.0791140218513038,0.09740496842920404,0.09732662556488819,0.09830981174824378,0.09939617358400507,0.09624462231929569,0.09852834475378332,0.09598297279870185,0.0987390993522524,0.09599274051102882,0.0963670428236774,0.09731028643969136,0.09648280250821144
2.317000150680542,black.png,0.048177262923391216,0.1004127979770658,0.08625924870482071,-0.0797714760627122,0.09742796837424855,0.09734756914944281,0.09833446572237799,0.09938962452287967,0.09624895855772002,0.09853131753579587,0.09599448394709634,0.09874913528551284,0.09599209231043962,0.09638465599830819,0.09731540498917163,0.09648637878732429
2.317000150680542,black.png,0.0480997023701313,0.1003936425320676,0.08693047159081359,-0.07927951416725089,0.09741147278684054,0.09733335343996924,0.09831468442853504,0.09941023283126746,0.09623434051684625,0.09851703477108893,0.09597944122307792,0.09874260857613189,0.09604084146509664,0.09636726634112196,0.097299714064564,0.09647109019411686
2.317000150680542,black.png,0.04817176439425521,0.10040613715721812,0.08653004008889677,-0.07941020481708107,0.09741826771715495,0.0973380249545604,0.09832465330656211,0.09938624940946691,0.09625387594150019,0.0985375536724989,0.09599233817962863,0.09874303325927654,0.09596296798741435,0.09637893395172763,0.09731967417236259,0.09649219024088267
2.317000150680542,black.png,0.048130592480968536,0.10040280674729428,0.086483414349963,-0.07973584738205045,0.09742155342358988,0.09734256235868483,0.09832597205948497,0.0994005098224294,0.09623136773483369,0.09851410669256529,0.09598134112135662,0.09874484375057742,0.09603869569762893,0.0963743965476032,0.0972974118348851,0.09646858679873786
2.317000150680542,black.png,0.048118164911051385,0.1003925472965893,0.08689086429963878,-0.0791134183542035,0.09740655540306037,0.09732852546316689,0.09831144342558902,0.09939874403461743,0.09624663397629667,0.09853147399800706,0.09598547619408085,0.09874193802379823,0.09599575799653029,0.09637242959409113,0.09731234280018125,0.09648588704894627
2.317000150680542,black.png,0.04817265846403342,0.1004144967096444,0.08624094262611182,-0.07977185604236794,0.09742973416206052,0.09734969256516607,0.09833667854507906,0.0993923067322143,0.0962488691507422,0.09853252452999646,0.09599499803721881,0.09875002935529105,0.09599249464183982,0.09638818757393212,0.097315717913594,0.09648774224373606
2.317000150680542,black.png,0.04809637196020746,0.10039096032273297,0.08691880398020792,-0.07927893302189505,0.09740896939146154,0.09733138648645717,0.09831238219885614,0.09940886937485569,0.0962301160371442,0.09851397258209856,0.09597606610966516,0.09873954638714151,0.09603833806971765,0.09636753456205542,0.09729622719242897,0.09646825152257103
2.317000150680542,black.png,0.048180459222848325,0.10040448312812843,0.08653044242029696,-0.07940305225885537,0.09741650192934298,0.09733672855338199,0.09832313338793915,0.099386204705978,0.09625519469442305,0.09853907359112186,0.09599401456046278,0.09874482139883296,0.09596587371419354,0.09638387368725225,0.09732164112587466,0.09649391132520573
2.318000078201294,black.png,0.04814930089107763,0.1004075006136299,0.0864846660476525,-0.07973325457969363,0.09742580025503639,0.09734629510000886,0.09833039770488712,0.099404957819576,0.09623559221453575,0.09851786178563378,0.09598556560105867,0.09874904587853502,0.09604374719187583,0.0963815491058289,0.09730203864598735,0.09647263246448427
2.318000078201294,black.png,0.04812746323674479,0.10039438013963463,0.08688827149728197,-0.0791289751683444,0.09740852235657244,0.09732997832655649,0.09831314215816762,0.09940053217417386,0.0962455163890739,0.09852988702415073,0.09598455977255818,0.09874064162261982,0.09599604856920821,0.09637359188480281,0.09731164989610314,0.09648409890938985
2.318000078201294,black.png,0.0481847731095282,0.10041427319219985,0.08623651698070967,-0.0797925314059891,0.09742917536844914,0.09734873144015449,0.09833529273692283,0.09939042918568006,0.09624860092980873,0.09853180927417389,0.09599488627849653,0.09874929174772402,0.09599238288311754,0.09638988630651073,0.09731585202406073,0.09648709404314686
2.318000078201294,black.png,0.04810723490801274,0.10039138500587762,0.0869269623669341,-0.0792949145191806,0.09740952818507292,0.09733145354169054,0.09831289628897862,0.09940907054055578,0.09623130067960033,0.09851484430013231,0.09597751897305476,0.09874084278831992,0.09604052854067427,0.09637106613767936,0.09729779181454085,0.09646939146153825
2.318000078201294,black.png,0.04817896165596982,0.1004043937211506,0.08653339285056506,-0.07940387927340022,0.0974165913363208,0.09733668384989308,0.09832288751875014,0.09938622705772246,0.09625378653452236,0.09853777718994346,0.09599274051102882,0.09874339088718782,0.0959646443682485,0.09638362781806324,0.09732061294562971,0.09649274903449405
2.318000078201294,black.png,0.048141544835751636,0.10040533249441773,0.08646206843400818,-0.07974060830361943,0.09742434739164679,0.09734452931219689,0.09832903424847535,0.09940337084571968,0.09623366996451259,0.098516252460033,0.09598393392371343,0.09874698951804513,0.09604175788661931,0.09638072209128405,0.09730074224480895,0.0964712690080725
2.318000078201294,black.png,0.048130078390846064,0.1003910944331997,0.08688091777335617,-0.07911189843558054,0.0974056389815377,0.09732718435849957,0.09831088463197764,0.0993980064270504,0.09624339297335065,0.0985282553468055,0.09598259281904611,0.09873887583480785,0.0959941039674406,0.09637220607664658,0.09730992881178008,0.09648260134251134
2.318000078201294,black.png,0.04819188096426499,0.10041391556428857,0.08623978033540014,-0.07976801154232163,0.09742857187134885,0.09734815029479865,0.09833489040552264,0.09939047388916897,0.09625041142110961,0.09853473735269754,0.0959968532320086,0.09875166103263629,0.09599367928429595,0.0963927026263121,0.09731786368106171,0.09649008917690387
2.318000078201294,black.png,0.04810947008245827,0.10039438013963463,0.08691310428537181,-0.07928434214405324,0.09741160689730727,0.09733395693706953,0.09831528792563533,0.09941199861907943,0.0962320159354229,0.09851665479143319,0.09597843539457743,0.09874202743077605,0.09604072970637437,0.09637251900106895,0.09729852942210787,0.09647113489760577
2.318000078201294,black.png,0.04818242617636039,0.10040506427348427,0.08652986127494113,-0.0793968384738968,0.09741670309504308,0.09733744380920456,0.09832369218155053,0.09938645057516701,0.09625483706651176,0.09854001236438899,0.09599408161569614,0.0987447543435996,0.09596560549326008,0.09638700293147599,0.09732177523634139,0.09649511831940631
2.318000078201294,black.png,0.048152452487045826,0.10040716533746306,0.0864623590066861,-0.07973618265821728,0.09742517440619164,0.0973462727482644,0.09833019653918702,0.09940493546783155,0.09623393818544605,0.09851705712283339,0.09598438095860254,0.0987473024424675,0.09604204845929723,0.09638300196921849,0.09730103281748687,0.09647216307785071
2.318000078201294,black.png,0.048142930643907865,0.10039288257275612,0.08688681863389237,-0.07912164379616306,0.09740653305131591,0.09732801137304442,0.09831193516396704,0.09939957104916228,0.09624475642976242,0.09852901530611698,0.09598402333069125,0.09873988166330834,0.0959964509006084,0.09637578235575943,0.0973112699164474,0.09648409890938985
2.318000078201294,black.png,0.04819916763295742,0.10041346852939946,0.08624854221922662,-0.0797821825483063,0.09742816953994865,0.09734741268723163,0.09833489040552264,0.09939063035138015,0.09624766215654161,0.09853049052125103,0.09599399220871832,0.09874808475352344,0.09599126529589477,0.09639109330071131,0.09731522617521599,0.09648657995302438
2.318000078201294,black.png,0.048121875300630966,0.10039138500587762,0.0869244142680662,-0.07929665795524811,0.09740910350192827,0.09733082769284579,0.09831303039944535,0.09940886937485569,0.09623230650810081,0.09851555955595488,0.0959787483189998,0.09874173685809813,0.09604213786627505,0.09637390480922518,0.09729902116048589,0.09647068786271666
2.318000078201294,black.png,0.04819568076082239,0.10040607010198475,0.08652834135631816,-0.07939531855527383,0.09741842417936614,0.09733820376851604,0.09832496623098448,0.09938794814204552,0.09625566408105661,0.09853974414345552,0.09599481922326317,0.09874529078546652,0.09596741598456096,0.09638903694022143,0.09732278106484188,0.09649538654033978
2.319000005722046,black.png,0.048160499115049736,0.10040622656419594,0.08645661460836108,-0.07973569091983926,0.09742452620560244,0.09734544573371956,0.09832928011766436,0.0994030579212973,0.09623364761276813,0.09851654303271092,0.095984403310347,0.09874739184944532,0.09604224962499733,0.09638492421924165,0.09730092105876459,0.09647225248482853
2.319000005722046,black.png,0.04814681984744309,0.10039312844194513,0.0868726029244188,-0.07912510831655363,0.09740675656876047,0.0973283690009557,0.09831130931512229,0.0993979617235615,0.09624529287162935,0.09852914941658371,0.09598451506906927,0.09874064162261982,0.0959972555634088,0.09637812928892724,0.09731153813738086,0.09648463535125677
2.319000005722046,black.png,0.048198742949812766,0.10041382615731075,0.08621691450082236,-0.0797832330802957,0.09742843776088211,0.09734770325990955,0.09833464453633363,0.0993891551362461,0.09624882444725329,0.09853133988754033,0.09599479687151871,0.09874902352679056,0.09599119824066141,0.0963933508269013,0.09731574026533846,0.09648740696756923
2.319000005722046,black.png,0.04811067707665886,0.10038995449423248,0.08688764564843722,-0.07930070362099452,0.09740852235657244,0.09733035830621223,0.09831159988780021,0.09940638833122115,0.09623156890053379,0.09851462078268776,0.09597754132479921,0.09874082043657546,0.0960402603197408,0.09637473182377003,0.09729730007616283,0.09646983849642736
2.319000005722046,black.png,0.04818309672869405,0.10040345494788348,0.08650811302758611,-0.07939330689827286,0.09741636781887625,0.09733701912605991,0.09832228402164984,0.0993849083047996,0.09625432297638929,0.09853809011436583,0.09599280756626219,0.0987439496807992,0.09596502434790424,0.09638899223673252,0.09732038942818516,0.09649373251125008
2.319000005722046,black.png,0.04815111138237851,0.10040428196242833,0.08642612682892405,-0.07973888721929637,0.0974239450602466,0.0973443728499857,0.09832887778626416,0.09939977221486238,0.09623299941217893,0.09851562661118825,0.09598277163300176,0.09874683305583394,0.09604028267148526,0.09638642178612015,0.09729937878839717,0.09647158193249487
2.319000005722046,black.png,0.04814060606248451,0.10039087091575515,0.08686591975282666,-0.07911055733091323,0.09740559427804879,0.0973272737654774,0.09831037054185517,0.09939749233692793,0.09624439880185114,0.09852774125668302,0.09598290574346849,0.09873972520109715,0.09599566858955247,0.09637866573079416,0.09730999586701344,0.09648333895007837
2.319000005722046,black.png,0.048192506813109735,0.10041103218925383,0.08621570750662177,-0.07976503876030908,0.09742644845562559,0.09734549043720847,0.09833348224562195,0.09938727758971186,0.09624833270887527,0.09853044581776212,0.09599338871161803,0.09874783888433443,0.09599008065343864,0.0963944013588907,0.09731468973334906,0.09648628938034647
2.319000005722046,black.png,0.048113403989482405,0.10039107208145524,0.08688827149728197,-0.07929026535633389,0.09740925996413946,0.09733055947191233,0.0983128068820008,0.09940712593878817,0.09623139008657815,0.09851403963733192,0.09597649079280982,0.09874003812551953,0.09604034972671863,0.09637658701855982,0.09729674128255145,0.09646889972316024
2.319000005722046,black.png,0.04818785765026303,0.10040383492753922,0.08650954353923125,-0.0793918316831388,0.09741565256305368,0.09733563331790368,0.09832206050420529,0.09938488595305514,0.09625320538916653,0.09853657019574287,0.09599084061275012,0.09874209448600942,0.09596417498161494,0.09638988630651073,0.09731902597177339,0.09649210083390485
2.319000005722046,black.png,0.04815654285628115,0.10040372316881695,0.0864215447213107,-0.07973917779197429,0.09742166518231216,0.09734231648949582,0.09832615087344061,0.09939963810439564,0.09623170301100052,0.09851345849197608,0.09598100584518979,0.09874444141917722,0.09603820395925092,0.09638568417855313,0.09729756829709629,0.09646910088886033
2.319999933242798,black.png,0.048151267844589694,0.10038912747968763,0.08688170008441211,-0.07910494704305494,0.09740264384778069,0.09732367513462009,0.09830659309704222,0.09939317845024806,0.09624366119428411,0.09852655661422689,0.09598194461845691,0.09873858526212993,0.09599542272036346,0.09637871043428307,0.09730905709374632,0.09648210960413332
2.319999933242798,black.png,0.048211036409263185,0.10041322266021045,0.08624020501854479,-0.07975444403343726,0.09742785661552628,0.09734680919013133,0.09833439866714462,0.0993876575693676,0.09624960675830922,0.09853093755614013,0.09599396985697387,0.09874891176806828,0.09599079590926121,0.09639639066414722,0.09731578496882737,0.09648749637454705
2.319999933242798,black.png,0.048124021068098675,0.1003902450669104,0.0868924065700062,-0.07928856662375529,0.0974081423769167,0.09732993362306758,0.09831189046047813,0.09940625422075441,0.09623273119124547,0.09851477724489895,0.09597736251084357,0.09874162509937585,0.09604198140406386,0.09637786106799377,0.09729808238721877,0.09647033023480538
2.319999933242798,black.png,0.04819771476956782,0.10040593599151802,0.08651240456252153,-0.07938564024992469,0.09741779833052139,0.09733775673362693,0.0983240051059729,0.09938629411295583,0.09625678166827938,0.09853992295741117,0.09599401456046278,0.0987460060412891,0.09596752774328324,0.09639261321933427,0.09732233402995277,0.09649558770603987
2.319999933242798,black.png,0.0481624660685618,0.10040450547987288,0.08641814725615349,-0.07974029537919705,0.0974233415631463,0.09734367994590759,0.09832711199845219,0.09939943693869555,0.09623192652844507,0.09851363730593173,0.09598109525216761,0.09874502256453306,0.09603847218018438,0.09638548301285303,0.09729783651802976,0.0964695702754939
2.321000099182129,black.png,0.04815111138237851,0.10038910512794318,0.08687320642151909,-0.07911643583970497,0.09740349321406999,0.09732443509393157,0.09830806831217627,0.09939387135432617,0.09624482348499579,0.09852847886425005,0.09598319631614641,0.09874052986389754,0.09599700969421979,0.09638018564941712,0.09731010762573572,0.09648385304020084
2.321000099182129,black.png,0.04821409859825356,0.10041400497126639,0.08623086198936247,-0.07976935264698895,0.0974292424236825,0.09734765855642064,0.09833518097820056,0.09938732229320077,0.09625052317983189,0.09853301626837448,0.09599555683083019,0.09875036463145788,0.09599128764763923,0.0963979552862591,0.09731690255605013,0.09648919510712566
2.321000099182129,black.png,0.048131553605980114,0.10039055799133277,0.0869019060613997,-0.07929618856861455,0.097409237612395,0.09733013478876767,0.09831177870175585,0.09940645538645451,0.09623228415635636,0.09851468783792112,0.09597763073177704,0.09874128982320902,0.09604113203777456,0.09637844221334961,0.0972976130005852,0.09647010671736082
2.321000099182129,black.png,0.048206744874327766,0.10040428196242833,0.08652445215278294,-0.07937801830506543,0.09741726188865446,0.09733574507662596,0.09832266400130558,0.0993847071390995,0.09625660285432373,0.09853909594286632,0.09599414867092951,0.09874506726802197,0.09596643250780493,0.09639281438503437,0.0973222222712305,0.0964952747816175
2.321000099182129,black.png,0.0481767711850132,0.1004058465845402,0.08642666327079097,-0.07973794844602924,0.09742550968235847,0.09734459636743026,0.09832939187638663,0.09939979456660683,0.09623425110986843,0.09851531368676587,0.09598330807486868,0.0987470565732785,0.09603990269182952,0.09638901458847697,0.09730016109945311,0.09647229718831744
2.321000099182129,black.png,0.048159739155738256,0.10038952981108783,0.08688337646524626,-0.07911344070594796,0.0974045884495483,0.09732550797766543,0.09830871651276547,0.0993950559967823,0.09624354943556183,0.09852613193108224,0.0959812964178677,0.09873858526212993,0.09599584740350811,0.09638116912617316,0.09730874416932395,0.09648362952275628
2.321000099182129,black.png,0.04822272637161331,0.10041255210787679,0.08624165788193439,-0.07976385411785294,0.097427744856804,0.09734756914944281,0.09833350459736641,0.09938761286587869,0.09624913737167566,0.09853024465206202,0.09599282991800664,0.09874819651224571,0.09598851603132677,0.09639849172812602,0.09731524852696044,0.09648915040363674
2.321000099182129,black.png,0.04814500935614221,0.10039017801167703,0.08690921508183659,-0.07930034599308323,0.09740883528099481,0.09733143118994608,0.09831193516396704,0.09940654479343233,0.09623337939183467,0.09851417374779865,0.09597716134514347,0.09874196037554268,0.09604108733428565,0.09638058798081732,0.09729870823606351,0.09647310185111783
2.321000099182129,black.png,0.04821338334243099,0.10040401374149487,0.08653907019365671,-0.07939075879940495,0.09741688190899872,0.09733722029176001,0.09832212755943866,0.09938461773212168,0.09625550761884542,0.09853674900969851,0.09599189114473952,0.09874379321858802,0.09596372794672584,0.09639276968154546,0.0973213729049412,0.09649686175547383
2.321000099182129,black.png,0.04818021335365932,0.10040441607289506,0.08644289063726553,-0.07975600865554913,0.09742423563292452,0.09734490929185263,0.09832836369614169,0.09939923577299545,0.09623299941217893,0.09851298910534252,0.09598073762425632,0.09874531313721098,0.09603692990981696,0.09638774053904302,0.09729913291920816,0.09647352653426249
2.322000026702881,black.png,0.04815772749873728,0.10038704876745329,0.08688438229374675,-0.07911509473503765,0.09740322499313653,0.09732499388754295,0.09830728600112033,0.09939286552582569,0.09624173894426095,0.09852380734965889,0.09597836833934406,0.0987365512533845,0.09599267345579546,0.09637929157963891,0.09730749247163445,0.0964843224268344
2.322000026702881,black.png,0.0482125786796306,0.10040846173864147,0.08622947618120624,-0.07976425644925314,0.0974251967579361,0.09734499869883045,0.09833111296070969,0.09938408129025475,0.09624748334258597,0.0985283000502944,0.09599066179879448,0.09874636366920038,0.09598538678710303,0.09639701651299197,0.09731437680892668,0.09649013388039278
2.322000026702881,black.png,0.04812639035301094,0.10038807694769823,0.08689119957580561,-0.07930530808035231,0.09740845530133907,0.09733013478876767,0.09831066111453308,0.09940363906665314,0.09623092069994459,0.09851196092509758,0.09597503792942022,0.09874003812551953,0.09603869569762893,0.09637917982091664,0.09729709891046273,0.09647345947902912
2.322000026702881,black.png,0.04819505491197764,0.10040253852636082,0.08653033066157469,-0.07938519321503558,0.09741710542644327,0.09733681796035981,0.09832217226292757,0.09938399188327693,0.09625689342700165,0.09853855950099939,0.09599334400812912,0.09874593898605573,0.09596531492058216,0.09639529542866891,0.09732322809973099,0.09650084036598687
2.796999931335449,black.png,0.048163226027873283,0.10040470664557298,0.08640180813095666,-0.07975788620208338,0.09742568849631411,0.0973458257133753,0.09832890013800862,0.09940012984277366,0.09623396053719051,0.09851408434082083,0.09598183285973463,0.0987464530761782,0.09603739929645053,0.09638993100999964,0.09730074224480895,0.09647645461278613
2.796999931335449,black.png,0.0481508655131895,0.10038861338956516,0.08686574093887102,-0.07911288191233658,0.09740512489141523,0.0973258209020878,0.09830853769880983,0.0993937595956039,0.09624363884253966,0.09852523786130403,0.09597993296145593,0.09873833939294092,0.09599426042965178,0.09638141499536217,0.09730974999782444,0.09648740696756923
2.796999931335449,black.png,0.048202654505092445,0.10040908758748622,0.08619782611105753,-0.0797640776352975,0.09742664962132569,0.09734526691976392,0.09833178351304335,0.09938381306932129,0.09624719276990805,0.09852754009098293,0.09598965597029399,0.09874546959942217,0.0959833974818465,0.09639614479495821,0.09731415329148213,0.09649044680481515
2.796999931335449,black.png,0.048128066733845086,0.10038693700873101,0.08687358640117483,-0.07930633626059726,0.09740736006586076,0.09732830194572234,0.09830891767846557,0.099402208555008,0.09623069718250003,0.09851151389020847,0.09597407680440864,0.09873938992493032,0.09603695226156142,0.09637801753020496,0.0972967636342959,0.09647359358949585
2.7980000972747803,black.png,0.048203503871381746,0.10040081744203776,0.08653015184761904,-0.07938432149700182,0.09741419969966408,0.09733348755043597,0.0983187524460259,0.09937949918264141,0.09625175252577693,0.0985333068410524,0.09598733138887064,0.09874012753249735,0.09595858704550111,0.09638841109137668,0.09731784132931726,0.09649536418859532
2.7980000972747803,black.png,0.04818115212692644,0.10040260558159418,0.08641953306430972,-0.07975840029220585,0.09742115109218968,0.0973418247511178,0.09832429567865082,0.09939317845024806,0.09623123362436696,0.09851151389020847,0.09597839069108852,0.09874318972148773,0.09603275013360382,0.0963859523994866,0.09729754594535184,0.09647345947902912
2.7980000972747803,black.png,0.04814947970503327,0.10038807694769823,0.08688163302917874,-0.07911829103449476,0.09740387319372573,0.09732521740498751,0.09830686131797568,0.09939058564789124,0.09624328121462837,0.09852474612292601,0.09597919535388891,0.09873742297141826,0.09599274051102882,0.09638040916686168,0.09730878887281286,0.09648646819430211
2.7980000972747803,black.png,0.04819843002539039,0.10040910993923068,0.08623705342257659,-0.07976725158301015,0.09742593436550312,0.09734502105057491,0.09833055416709831,0.09938144378440902,0.09624694690071904,0.09852754009098293,0.09598927599063825,0.09874466493662178,0.09598192226671245,0.0963967035885696,0.09731359449787075,0.09649031269434842
2.7980000972747803,black.png,0.04810920186152481,0.10038718287792002,0.08689609460784133,-0.0793101137054102,0.09740780710074987,0.09732906190503382,0.09830958823079923,0.09940059922940722,0.09623094305168904,0.09851182681463085,0.09597405445266419,0.0987388981865523,0.0960368628545836,0.09638002918720594,0.09729705420697382,0.09647415238310723
2.7980000972747803,black.png,0.048177262923391216,0.1004007950902933,0.08655136365310713,-0.07937173746487348,0.09741576432177596,0.09733536509697022,0.09832109937919371,0.09938095204603101,0.09625439003162266,0.0985365031405095,0.09599041592960547,0.0987428991488098,0.09596131395832466,0.09639487074552426,0.09732123879447446,0.0964994769095751
2.7980000972747803,black.png,0.048150641995744946,0.10040247147112745,0.08645824628570632,-0.07974773851010067,0.09742392270850214,0.09734388111160769,0.09832733551589674,0.09939668767412754,0.09623342409532358,0.09851426315477647,0.09598140817658998,0.09874573782035563,0.09603471708711589,0.09639203207397844,0.09730042932038657,0.09647701340639751
2.7990000247955322,black.png,0.04812887139664548,0.10038827811339833,0.08691254549176043,-0.07911869336589496,0.09740559427804879,0.09732613382651017,0.09830873886450993,0.09939284317408123,0.09624424233963995,0.09852673542818254,0.09598098349344533,0.09873892053829676,0.09599408161569614,0.09638458894307482,0.09731030879143582,0.096488770423981
2.7990000247955322,black.png,0.04818466135080592,0.10041000400900889,0.08628278509173215,-0.0797704255307228,0.09742776720854845,0.09734593747209758,0.098332208196188,0.09938182376406476,0.09624795272921953,0.09852892589913916,0.0959905500400722,0.09874567076512226,0.09598225754287928,0.09639972107407106,0.0973148685473047,0.09649178790948247
2.7990000247955322,black.png,0.04810251868993267,0.10038657938081973,0.08693650656181652,-0.07932028374913737,0.09740791885947214,0.09732899484980045,0.09830952117556586,0.09939945929044,0.09623013838888865,0.09851129037276392,0.09597347330730835,0.09873784765456291,0.0960352088254939,0.0963815491058289,0.0972963165994068,0.09647323596158457
2.7990000247955322,black.png,0.04817623474314627,0.1004003927588931,0.08657599527549688,-0.0793768783660982,0.09741580902526487,0.09733500746905893,0.09832033941988223,0.0993792533134524,0.09625383123801128,0.09853543025677565,0.09598954421157171,0.09874106630576447,0.09595968228097942,0.09639572011181356,0.09732061294562971,0.09649800169444105
2.7990000247955322,black.png,0.0481479150829214,0.10040258322984973,0.0864779605243159,-0.07975826618173912,0.0974243920951357,0.09734356818718531,0.09832726846066338,0.09939492188631557,0.09623369231625704,0.09851419609954311,0.0959814528800789,0.09874484375057742,0.09603409123827114,0.09639404373097941,0.09730083165178677,0.09647678988895296
2.799999952316284,black.png,0.048125116303576985,0.10038800989246487,0.08692157559652038,-0.07911712874378309,0.09740541546409315,0.09732553032940988,0.09830768833252053,0.09939172558685846,0.09624348238032847,0.09852526021304849,0.09598002236843375,0.09873735591618489,0.095992651104051,0.09638537125413076,0.09730990646003562,0.09648718345012468
2.799999952316284,black.png,0.048178894600736454,0.10041011576773116,0.08628421560337729,-0.07976615634753184,0.09742863892658221,0.09734564689941966,0.09833314696945512,0.09938148848789793,0.09624998673796496,0.09852984232066182,0.09599253934532873,0.09874667659362275,0.09598353159231324,0.09640376673981747,0.09731734959093924,0.0964925702205384
2.799999952316284,black.png,0.048099210631753285,0.10038807694769823,0.0869414686490856,-0.07931447229557899,0.09741033284787332,0.0973298218643453,0.09831218103315605,0.09940185092709672,0.09623223945286745,0.09851283264313133,0.09597588729570952,0.09873976990458606,0.09603784633133963,0.0963863994343757,0.09729888705001916,0.0964746217697408
2.799999952316284,black.png,0.048171317359366105,0.10040206913972725,0.08657717991795301,-0.07936608247352629,0.09741797714447703,0.09733628151849288,0.09832255224258331,0.0993822037437205,0.096256468743857,0.09853813481785474,0.09599238288311754,0.09874386027382138,0.09596218567635842,0.09640088336478274,0.09732311634100871,0.0965001251101643
2.799999952316284,black.png,0.0481386614607169,0.10040504192173981,0.08647129970446822,-0.07975118067874679,0.09742738722889271,0.09734701035583143,0.09833006242872029,0.09939854286891733,0.09623521223488,0.09851571601816607,0.09598299515044631,0.09874676600060057,0.09603514177026054,0.09639822350719256,0.09730210570122072,0.09647779571745345
2.799999952316284,black.png,0.04811447687321626,0.10038700406396438,0.08691797696566307,-0.07911898393857288,0.0974054378158376,0.09732588795732117,0.09830849299532092,0.09939248554616995,0.09624352708381738,0.09852581900665987,0.09598004472017821,0.09873822763421865,0.09599334400812912,0.09638910399545479,0.09730983940480226,0.09648742931931369
2.8010001182556152,black.png,0.04817505010069014,0.10041009341598671,0.08625663355071944,-0.0797703808272339,0.0974285942230933,0.09734692094885361,0.09833321402468849,0.0993836566071101,0.09625014320017615,0.09853158575672934,0.09599236053137308,0.09874754831165651,0.09598312926091304,0.09640694068753013,0.09731728253570587,0.09649339723508325
2.8010001182556152,black.png,0.04810166932364337,0.10038852398258734,0.08691929571858593,-0.07932466469105061,0.09740952818507292,0.09733051476842342,0.09831144342558902,0.0994021638515191,0.09623145714181151,0.09851301145708698,0.09597472500499785,0.09873936757318587,0.09603661698539459,0.09638756172508738,0.09729772475930748,0.09647383945868486
2.8010001182556152,black.png,0.0481744689553343,0.10040168916007151,0.08657682229004172,-0.07936847411018301,0.09741656898457635,0.09733525333824794,0.09832083115826025,0.09938122026696447,0.0962549711769785,0.09853719604458762,0.0959909523714724,0.09874251916915407,0.09596010696412408,0.09640041397814918,0.09732157407064129,0.09649820286014114
2.8010001182556152,black.png,0.04815035142306703,0.10040381257579477,0.0864790110563053,-0.07976298239981919,0.09742530851665837,0.09734374700114096,0.09832760373683021,0.09939512305201567,0.09623478755173535,0.09851535839025478,0.09598277163300176,0.09874558135814444,0.0960332642237263,0.0963982011554481,0.09730163631458716,0.09647618639185267
2.8010001182556152,black.png,0.048135934547893354,0.1003889933692209,0.0869299127972022,-0.07911283720884767,0.09740653305131591,0.09732593266081008,0.09830898473369894,0.09939161382813619,0.09624424233963995,0.09852637780027125,0.09598102819693424,0.09873795941328518,0.09599347811859585,0.0963901992309331,0.09731028643969136,0.09648653524953547
2.8010001182556152,black.png,0.04819577016780021,0.10041248505264343,0.08627183273694905,-0.07975413110901489,0.09743006943822735,0.09734759150118727,0.09833372811481096,0.09938381306932129,0.09625159606356574,0.09853239041952973,0.09599412631918505,0.09874797299480116,0.09598337513010205,0.09640823708870853,0.09731813190199518,0.0964931737176387
2.8010001182556152,black.png,0.04811288989935993,0.10039046858435495,0.08692910813440181,-0.07931275121125593,0.09741140573160717,0.09733134178296826,0.09831242690234505,0.09940308027304176,0.09623349115055695,0.09851410669256529,0.09597698253118783,0.09874044045691972,0.09603820395925092,0.09638981925127736,0.09729924467793044,0.09647426414182951
2.8010001182556152,black.png,0.04818271674903831,0.10040381257579477,0.08658140439765506,-0.07935356549663132,0.09741902767646643,0.09733724264350446,0.09832273105653895,0.09938296370303198,0.09625796631073551,0.09853929710856642,0.09599352282208476,0.09874459788138841,0.09596256565601416,0.09640452669912895,0.09732421157648702,0.09649994629620866
2.80400013923645,black.png,0.048150843161445044,0.10040573482581792,0.08643884497151912,-0.07975303587353658,0.09742765544982618,0.09734616098954213,0.09832981655953128,0.09939693354331655,0.09623483225522426,0.09851441961698766,0.09598203402543473,0.09874473199185514,0.0960324595609259,0.09639949755662651,0.09730132339016478,0.09647529232207445
2.80400013923645,black.png,0.048130637184457446,0.10038901572096535,0.08692074858197553,-0.07909895677554092,0.09740646599608255,0.09732649145442146,0.09830878356799884,0.09939282082233677,0.09624667867978558,0.0985283000502944,0.09598333042661314,0.09874026164296408,0.09599555683083019,0.09639332847515684,0.09731261102111471,0.09648879277572546
2.80400013923645,black.png,0.04819290914450993,0.10041454141313332,0.086273106786383,-0.07973616030647282,0.09743163406033922,0.09734969256516607,0.09833647737937896,0.09938580237457781,0.09625447943860048,0.098535005573631,0.09599678617677523,0.09875074461111362,0.09598527502838075,0.0964123051061994,0.09732108233226328,0.09649641472058472
2.80400013923645,black.png,0.048106787873123634,0.1003923461308892,0.0869269176634452,-0.079306716240253,0.0974131938711636,0.09733435926846973,0.09831528792563533,0.09940562837190967,0.09623556986279129,0.09851667714317765,0.09597908359516663,0.09874301090753208,0.09603996974706289,0.09639411078621278,0.09730127868667587,0.09647721457209761
2.80400013923645,black.png,0.04817303844368916,0.10040551130837337,0.08658980865357026,-0.07935459367687626,0.09742063700206721,0.0973401260185392,0.09832536856238468,0.09938564591236662,0.09625928506365837,0.09854121935858957,0.0959949533337299,0.0987462519104781,0.09596421968510385,0.09640821473696408,0.09732532916370978,0.09650233793286538
2.805000066757202,black.png,0.04814024843457323,0.10040685241304069,0.08646396833228688,-0.07975726035323863,0.09742863892658221,0.0973481279430542,0.0983315599955988,0.09939903460729535,0.0962387661622484,0.09851877820715645,0.09598605733943669,0.09874873295411264,0.09603628170922776,0.09640504078925143,0.09730498907625545,0.09647987442968779
2.805000066757202,black.png,0.04811995305060781,0.10039306138671177,0.08691989921568623,-0.07911015499951303,0.09741093634497361,0.0973308723963347,0.0983128068820008,0.09939633004621626,0.09624808683968626,0.09852943998926163,0.09598455977255818,0.09874113336099784,0.09599783670876463,0.09639623420193603,0.09731350509089293,0.09648988801120377
2.805000066757202,black.png,0.048187701188051844,0.10041514491023361,0.08626966461773689,-0.07974590566705533,0.09743286340628426,0.0973504301727331,0.09833734909741272,0.09938571296759999,0.09625586524675671,0.09853563142247575,0.09599794846748691,0.09875094577681372,0.095987152574915,0.09641498731553404,0.09732219991948604,0.09649701821768501
2.805000066757202,black.png,0.04810529030624513,0.10039527420941284,0.08692298375642106,-0.0793172662636359,0.09741670309504308,0.0973363262219818,0.09831805954194779,0.09940755062193282,0.09623878851399285,0.09851850998622298,0.09598192226671245,0.09874486610232187,0.09604403776455375,0.09639737414090326,0.09730429617217734,0.09647909211863186
2.805000066757202,black.png,0.04817947574609229,0.10040832762817474,0.08658406425524524,-0.07936284147058027,0.09742360978407977,0.09734119890227305,0.09832769314380803,0.09938687525831166,0.09626165434857063,0.09854202402138997,0.09599678617677523,0.09874654248315602,0.09596683483920512,0.09640971230384258,0.09732754198641086,0.09650303083694349
2.805999994277954,black.png,0.04814749039977675,0.10040917699446404,0.08643426286390578,-0.07976765391441035,0.09743073999056101,0.09734870908841003,0.09833328107992186,0.09939948164218446,0.09623997315644899,0.09851871115192308,0.09598668318828144,0.09874801769829007,0.0960372651859838,0.09640629248694092,0.09730590549777812,0.09647976267096552
2.805999994277954,black.png,0.04812491513787689,0.10039355312508978,0.0869229614046766,-0.07911133964196916,0.09741140573160717,0.09733049241667896,0.09831394682096802,0.09939655356366081,0.09624976322052041,0.09853033405903984,0.09598567735978095,0.09874122276797566,0.0959998036622767,0.09639829056242592,0.09731471208509351,0.09649075972923753
2.805999994277954,black.png,0.04818718709792937,0.10041548018640044,0.08627514079512844,-0.07974474337634366,0.09743373512431802,0.09735112307681121,0.0983381090567242,0.09938653998214483,0.09625633463339027,0.09853632432655386,0.09599819433667592,0.09875040933494679,0.09598690670572599,0.09641648488241254,0.09732244578867505,0.0964975770112964
2.805999994277954,black.png,0.04811286754761548,0.10039402251172334,0.08692202263140948,-0.07931740037410263,0.09741567491479813,0.0973354768556925,0.09831665138204711,0.09940607540679877,0.09623753681630336,0.09851770532342259,0.0959808493829786,0.09874287679706535,0.09604189199708604,0.0963973517891588,0.09730270919832101,0.09647792982792018
2.806999921798706,black.png,0.04818177797577119,0.10040783588979672,0.0865992410897304,-0.07936018161299009,0.09742305099046839,0.09734108714355078,0.09832722375717447,0.0993860035402779,0.09626281663928231,0.0985438568644353,0.09599841785412047,0.09874783888433443,0.09596755009502769,0.0964129533067886,0.0973283242974668,0.09650459545905536
