Timestamp,Filename,1/Fp1,2/Fp2,3/Cz,4/Pz,5/P7,6/P8,7/O1,8/O2,9/CP5,10/CP6,11/CP1,12/CP2,13/PO3,14/PO4,15/P3,16/P4
0.16000008583068848,car (1).jpg,0.08078159609813644,0.09267681451759512,0.08826833525518599,-0.07227704790557002,0.0914298777496669,0.09073643722968545,0.09136078850755555,0.09273396792816734,0.08974547263925942,0.09238382785127496,0.08897380101368439,0.08945559286541854,0.08942072414406826,0.0936778597447705,0.0906732488481103,-0.07415316392817067
0.16000008583068848,car (1).jpg,0.0808201752090663,0.0926975792881941,0.08829372683688722,-0.07294710850085122,0.09142375337168615,0.09076055476195273,0.09138571070262322,0.09275935950986856,0.08975557562775321,0.09238179384252952,0.08897286224041727,0.08945697867357477,0.08943397872853026,0.09370823576548526,0.09067561813302256,-0.07414330680886588
0.16000008583068848,car (1).jpg,0.08075028130415456,0.09267406525302711,0.08826697179877421,-0.07230085251341492,0.09144921200862074,0.09073623606398536,0.09136199550175614,0.09273919823636988,0.08973961648221213,0.09237081913600197,0.08896213340307872,0.08944423817923525,0.0894137056963093,0.09370640292243992,0.09066198356890483,-0.07367166264911444
0.16100001335144043,car (1).jpg,0.08082938412778189,0.09269458415443708,0.08828880945310705,-0.07258585960696454,0.09141876893267262,0.09075514563979455,0.09137909458626445,0.0927506870330199,0.08976002362489982,0.09239473550256914,0.08898528981033442,0.08946567350216789,0.08943585627506451,0.09367942436688237,0.09068596699070537,-0.07447460436518244
0.16100001335144043,car (1).jpg,0.08078309366501495,0.0926889738665788,0.08828478613910509,-0.07270170869847639,0.09144704388940858,0.09075226226475981,0.09137844638567524,0.09275524678888879,0.0897454279357705,0.09237001447320158,0.08896161931295625,0.08944417112400188,0.08942097001325727,0.09372468664940437,0.09066339172880551,-0.07365787162278552
0.16100001335144043,car (1).jpg,0.08079706350529951,0.0926818213083531,0.0882736773221108,-0.07222521421017816,0.0914340798776245,0.09074097463380988,0.09136478946981305,0.0927386394427585,0.08975170877596245,0.09238887934552185,0.08897912072886476,0.08945840918521991,0.08942479216155913,0.09368130191341661,0.0906780544731682,-0.07415803660846193
0.16100001335144043,car (1).jpg,0.08083204398537207,0.09270323427954129,0.08829931477300104,-0.07289744292467153,0.09142643558102079,0.09076491335212152,0.0913889740573137,0.09276199701571429,0.08975879427895478,0.09238416312744178,0.08897523152532953,0.08945697867357477,0.08943549864715322,0.09370814635850744,0.090677898010957,-0.07415412505318225
0.16100001335144043,car (1).jpg,0.08076404997873902,0.09267808856702907,0.08827121863022072,-0.07227952894920456,0.09145044135456579,0.09073873945936435,0.09136344836514573,0.092740137009637,0.08974205282235775,0.09237321077265868,0.0889637427286795,0.08944408171702406,0.08941504680097662,0.09370731934396259,0.09066361524625006,-0.07369010283829007
0.16100001335144043,car (1).jpg,0.0808387271569642,0.0926965287562047,0.08829050818568565,-0.07259388388322399,0.09141809838033896,0.09075554797119474,0.09137797699904168,0.09274956944579714,0.0897607835842113,0.09239500372350261,0.08898535686556779,0.08946370654865582,0.0894358115715756,0.0936797596430492,0.09068587758372755,-0.07449925833931664
0.16100001335144043,car (1).jpg,0.08078628996447206,0.092689622067168,0.08828565785713885,-0.07274323823967435,0.09144512163938542,0.09075132349149269,0.09137690411530783,0.0927521398964095,0.0897445338659923,0.09236876277551208,0.08895992058037765,0.08944115363850041,0.0894198077225456,0.09372432902149308,0.09066216238286047,-0.07366200669550975
0.16100001335144043,car (1).jpg,0.08079923162451168,0.09268173190137528,0.08827461609537793,-0.07226050761467309,0.09143338697354639,0.09074008056403167,0.09136349306863464,0.092737633614258,0.08975052413350632,0.09238789586876582,0.08897715377535269,0.08945597284507428,0.08942338400165845,0.09368277712855066,0.0906770486446677,-0.07415606965494986
0.16200017929077148,car (1).jpg,0.08083445797377324,0.09270236256150753,0.08829962769742342,-0.07296089952718014,0.0914260779531095,0.09076310286082064,0.09138694004856826,0.09275960537905757,0.08975897309291042,0.09238476662454208,0.08897473978695151,0.08945675515613022,0.08943576686808669,0.09370988979457495,0.09067854621154621,-0.07415877421602896
0.16200017929077148,car (1).jpg,0.08077415296723282,0.09267980965135213,0.08827365497036635,-0.07234953461283858,0.09145214008714439,0.09073974528786484,0.09136394010352375,0.09274181339047115,0.08974408683110319,0.09237555770582649,0.08896465915020217,0.08944627218798068,0.08941701375448868,0.09371033682946406,0.09066578336546223,-0.07369899883258328
0.16200017929077148,car (1).jpg,0.0808582849333626,0.09270010503531755,0.08829444209270979,-0.07265986623285606,0.09142167465945181,0.09075861016018512,0.0913803686356984,0.092753391594099,0.08976326462784584,0.09239804356074853,0.08898703324640193,0.08946757340044659,0.08943882905707706,0.09368320181169532,0.09068889506922902,-0.07451269173773428
0.16300010681152344,car (1).jpg,0.08080844054322726,0.09269525470677074,0.08829155871767505,-0.07283874724373189,0.09144997196793223,0.09075709024156216,0.09138166503687681,0.09275980654475767,0.08975094881665097,0.09237571416803768,0.08896535205428029,0.08944897674905977,0.08942698263251575,0.09372853114945068,0.09066913612713053,-0.07371560617871357
0.16300010681152344,car (1).jpg,0.08081979522941056,0.09268928679100118,0.08828112045301442,-0.07232380775497052,0.09143825965383764,0.09074689784609054,0.09137004212976005,0.09274445089631687,0.08975515094460856,0.09239205329323451,0.08898008185387633,0.08946153842944365,0.08942888253079445,0.09368347003262878,0.09068180956623668,-0.07424167683621369
0.16300010681152344,car (1).jpg,0.08085256288678204,0.09270821871855482,0.08830429921201458,-0.07303593433331661,0.09142898367988869,0.09076880255565674,0.09139250563293763,0.09276637795762753,0.08976596918892493,0.09239082394728947,0.0889797018742206,0.08946404182482265,0.08944314294375694,0.09371062740214198,0.09068531879011617,-0.07423984399316835
0.1640000343322754,car (1).jpg,0.08079076031336312,0.09268754335493366,0.08828118750824779,-0.07243545471852478,0.09145710217441347,0.09074678608736826,0.09137167380710529,0.09274912241090803,0.08975199934864037,0.0923821067669519,0.08897058236248283,0.08945422940900677,0.08942555212087061,0.0937101133120195,0.09067391940044396,-0.07381703839505177
0.1640000343322754,car (1).jpg,0.08087136070386895,0.09270730229703215,0.08830125937476865,-0.0727453169519087,0.09142717318858781,0.09076495805561043,0.0913877223596242,0.09276038769011351,0.08977081951747173,0.09240477143582958,0.08899250942379348,0.08947486006913902,0.08944689803682543,0.09368188305877245,0.09069678523502174,-0.07465804513192714
0.1640000343322754,car (1).jpg,0.08083320627608374,0.0927034801487303,0.08829944888346777,-0.07298184311173476,0.0914557387180017,0.09076346048873192,0.09138995753406973,0.09276631090239416,0.089759934217922,0.09238407372046396,0.08897232579855034,0.08945726924625269,0.08943534218494203,0.09372591599534941,0.09067778625223473,-0.07384799556112237
0.16499996185302734,car (1).jpg,0.08084295163666626,0.09269912155856151,0.08829175988337515,-0.07253784805987454,0.09144782620046452,0.09075505623281672,0.09137864755137534,0.09275269869002088,0.08976764556975908,0.09240519611897423,0.08899141418831517,0.08947407775808308,0.08944070660361131,0.09368624164894124,0.09069441595010948,-0.07444185905955542
0.16499996185302734,car (1).jpg,0.08089413713146891,0.09272406610537363,0.08832061598546695,-0.07332031557802147,0.09144467460449632,0.09078342059653051,0.09140904592383456,0.0927820465304907,0.0897826882937775,0.09240946530216519,0.08899608570290633,0.08948118561281987,0.08945992910384287,0.09371784701560104,0.09070275315079131,-0.07443794750427574
0.16499996185302734,car (1).jpg,0.0808277748021811,0.09270669879993186,0.08830170640965776,-0.07285166655202706,0.09147547530835573,0.0907654721457329,0.09139181272885952,0.09276870253905088,0.08977035013083817,0.09240246920615068,0.08898797201966906,0.08947217785980438,0.08944394760655733,0.09371992572783538,0.09069233723787513,-0.07405530799094534
0.16499996185302734,car (1).jpg,0.0809039942507737,0.09272694948040837,0.088322091200601,-0.07325882592902493,0.09144614981963037,0.0907848287564312,0.09140826361277862,0.09278030309442319,0.08979270187529348,0.09242859839541893,0.08901327419439246,0.08949620598509384,0.08946862393243599,0.09369694813453533,0.09071933814517714,-0.07495896666752895
0.16499996185302734,car (1).jpg,0.0808576814362623,0.09272815647460896,0.08832577923843613,-0.07362014187814496,0.09147840338687938,0.09078958967800017,0.09141503619134858,0.09279239538817351,0.08978326943913334,0.09240895121204272,0.08899449872905,0.08947977745291918,0.08945950442069822,0.09374131634727911,0.09070183672926864,-0.07409502704084242
0.1660001277923584,car (1).jpg,0.08087616632892684,0.09272332849780661,0.08831806788659904,-0.07331662754018635,0.09146899330246369,0.09078102895987379,0.0914043744092434,0.09277860436184458,0.0897923442473822,0.09243061005241991,0.08901441413335968,0.08949748003452779,0.08946665697892392,0.09370334073344955,0.09071924873819932,-0.07478046563630887
0.1660001277923584,car (1).jpg,0.08091736059395797,0.0927489883004413,0.08834761689276896,-0.07423883816466786,0.091464835877995,0.09080970624800995,0.09143307404912401,0.09280701342904728,0.08980895159351249,0.092435818008878,0.08902051615959598,0.08950575017997625,0.0894868182524226,0.09373291209136392,0.0907299105203045,-0.07478437719158855
0.1660001277923584,car (1).jpg,0.08086110125316397,0.0927346831839899,0.08833174715420569,-0.07396505164683481,0.09149749177664421,0.0907941270821246,0.09141905950535054,0.09279498819053032,0.08979833451489622,0.0924301183140419,0.08901432472638186,0.08949866467698392,0.08947251313597121,0.09373436495475351,0.09072050043588882,-0.07439281933222047
0.1660001277923584,car (1).jpg,0.08094288628612593,0.09275591734122245,0.08835231075910457,-0.07452599102568519,0.09146977561351963,0.09081350604456735,0.09143640445904785,0.0928086004029036,0.0898209991837739,0.09245680629692153,0.08904043156390566,0.08952340805809594,0.08949748003452779,0.09371339901845444,0.09074855187518023,-0.07529544982855914
0.1660001277923584,car (1).jpg,0.0808964393611478,0.0927611923529139,0.08835977624175265,-0.07503697425567797,0.09150531488720356,0.09082161972780463,0.09144722270336422,0.09282453719670024,0.08981775818082788,0.09244393169211527,0.08902862984283326,0.08951388621495798,0.08949461901123751,0.09376237169055601,0.09073737600295258,-0.07441718273367676
0.16700005531311035,car (1).jpg,0.08091458897764552,0.09276083472500261,0.0883561999626398,-0.07486598341059487,0.09150182801506854,0.09081723878589139,0.09144076304921664,0.09281474713262881,0.08982873288735543,0.09246708809937097,0.08905069101461065,0.08953384632275657,0.08950353735727518,0.09373067691691839,0.09075729140726226,-0.07489238082079659
0.16700005531311035,car (1).jpg,0.08094896596061778,0.09278718743171542,0.08838601718974319,-0.07583428333214323,0.09150100100052369,0.090845692556583,0.09147037911061992,0.09284434084228764,0.08984458027417425,0.09247193842791777,0.08905715066875823,0.08954216117169395,0.08952349746507376,0.09376031533006612,0.09076692500912249,-0.0746464669282993
0.16700005531311035,car (1).jpg,0.0809027425530842,0.09277355286759768,0.08837061683781347,-0.07563906319607057,0.09153401452708418,0.09083152155059833,0.09145804094768059,0.09283475194391631,0.08983738301245964,0.0924697256052167,0.08905408847976785,0.0895388307617701,0.08951294744169086,0.09376771375748083,0.09076075592765283,-0.07438267164023776
0.16700005531311035,car (1).jpg,0.08098220300462282,0.09279733512369813,0.08839323680320225,-0.07619971200224304,0.09151184159658451,0.09085376153633136,0.09147665995081186,0.09285064403422404,0.08985884068713673,0.09249507248342902,0.08907883186087988,0.08956281418357065,0.0895369308634914,0.09375018998982787,0.09078719804134346,-0.07529227588084648
0.16700005531311035,car (1).jpg,0.08094114285005842,0.09279894444929891,0.08839777420732668,-0.07673791965698239,0.09154143530624334,0.09085798601603341,0.09148535477940498,0.09286052350527328,0.08985475031790141,0.09248148262280019,0.0890664713461961,0.08955239827065448,0.08953335458437855,0.09379355237407117,0.09077539632027105,-0.07446865880115733
0.16700005531311035,car (1).jpg,0.08096009712935652,0.09280044201617742,0.08839598606777026,-0.07661907543171351,0.09153996009110929,0.09085530380669878,0.09148023622992471,0.09285524849358183,0.0898658591348957,0.09250461667831143,0.08908783961389537,0.08957235837845307,0.08954207176471612,0.09376677498421371,0.0907947752827138,-0.07492760717005816
0.1679999828338623,car (1).jpg,0.08099780452225262,0.09282379958913321,0.08842361282391702,-0.07754115194572829,0.09153685319863,0.09088199178957841,0.09150746065467127,0.09288095299970543,0.08987958310599126,0.09250821530916874,0.08909277934941999,0.08957852745992273,0.08956033313993611,0.09379259124905959,0.09080315718688454,-0.07472299930131428
0.1679999828338623,car (1).jpg,0.08094051700121367,0.09280951682442627,0.08840845834117632,-0.07737434087685834,0.09156872678622327,0.0908678431353382,0.09149501073300967,0.09287185583971212,0.08987399516987743,0.09250647187310122,0.08909018654706317,0.08957566643663245,0.08955045366888686,0.0938012860776527,0.09079774806472636,-0.07449749255150467
0.1679999828338623,car (1).jpg,0.08102194440626435,0.09283282969389316,0.08843078773388717,-0.0778949353569669,0.0915482078848133,0.09088842909198154,0.09151331681171856,0.0928854680520854,0.08989464818175413,0.09253081292281305,0.08911365587874125,0.08959783936713211,0.0895726936546199,0.09378774092051279,0.09082307259119422,-0.0753144711630906
0.1679999828338623,car (1).jpg,0.08095965009446741,0.09283358965320464,0.08843505691707813,-0.07842353176159045,0.09157708633864955,0.0908926982751725,0.09151982116935506,0.09289592866849049,0.08989004372239634,0.09251670897206175,0.08910060245997935,0.0895865964396711,0.089567642160373,0.09383025393846678,0.09081028739336579,-0.07447929823151805
0.1679999828338623,car (1).jpg,0.08098180067322262,0.09283370141192691,0.0884313241757541,-0.07824422606756998,0.09157563347525996,0.09088851849895936,0.09151300388729619,0.09288819496490895,0.08989809035040025,0.0925360432310156,0.08911821563461013,0.08960331554452367,0.08957289482031999,0.09380689636551098,0.0908250842481952,-0.07502756417126229
0.1679999828338623,car (1).jpg,0.08101329428116015,0.0928540638511257,0.0884555311149992,-0.07909569342085045,0.09156957615251257,0.09091057967073675,0.09153551209396268,0.09290976439830832,0.0899081709871496,0.09253570795484876,0.08911973555323309,0.08960597540211385,0.08958699877107129,0.09383251146465676,0.09083040396337556,-0.0749141290681516
0.1679999828338623,car (1).jpg,0.08094096403610278,0.09283607069683918,0.08843606274557862,-0.07880831704238857,0.09159702409470369,0.09089207242632776,0.09151863652689893,0.09289539222662356,0.08989757626027778,0.0925289353762788,0.08911182303569591,0.08959855462295468,0.08957325244823128,0.09383975342986028,0.0908200327539483,-0.07441532753888697
0.16900014877319336,car (1).jpg,0.08102234673766455,0.09285594139765994,0.08845450293475425,-0.07911254663616975,0.09157489586769293,0.09091042320852556,0.0915334557334728,0.09290710454071814,0.08991666465004261,0.09255242705970133,0.08913430889061795,0.08962028051856524,0.08959491128860847,0.09382797406053234,0.0908440385274933,-0.0751466319139757
0.16900014877319336,car (1).jpg,0.08096720498409331,0.09285582963893767,0.08845863800747848,-0.0794832056144721,0.09160182971976158,0.09091478179869435,0.09154101062309869,0.09291801219201233,0.08990998147845047,0.09253579736182659,0.08911899794566606,0.08960669065793642,0.08958925629726128,0.09386411683131657,0.09082997928023091,-0.07431930444470697
0.1700000762939453,car (1).jpg,0.0809945635193066,0.0928507110894574,0.08844925027480725,-0.07914900233137635,0.09159653235632567,0.09090626578405687,0.09153088528286044,0.0929060763604732,0.08991483180699728,0.09255155534166758,0.08913299013769509,0.0896199005389095,0.0895920949688071,0.09383707122052565,0.09084119985594748,-0.07479103801143623
0.1700000762939453,car (1).jpg,0.08102902990925669,0.09286906187165521,0.08847269725474087,-0.07974192705654229,0.09158980448124462,0.09092633765057774,0.09155214179183743,0.09292594706129396,0.08992426424315741,0.09255066127188936,0.08913451005631805,0.0896220016028883,0.08960646714049186,0.09385890887485848,0.09084605018449428,-0.07468806352473062
0.1700000762939453,car (1).jpg,0.08096888136492746,0.092849660557468,0.08845090430389695,-0.0794450958901758,0.09161443610363437,0.09090631048754579,0.09153452861720665,0.09291117255820901,0.0899109202517176,0.09254111707700695,0.0891248317509689,0.08961225624230579,0.08958983744261712,0.09386306629932717,0.09083357791108822,-0.07420265069039472
0.17100000381469727,car (1).jpg,0.08105301333105723,0.09286465857799751,0.08846451651627023,-0.07955629581884095,0.09158893276321087,0.09091873805746294,0.0915446539574449,0.09291845922690144,0.08992307960070128,0.0925573444434815,0.08914036621336534,0.08962662841399055,0.08960400844860178,0.09384657071191915,0.09084942529790703,-0.07482262102635158
0.17100000381469727,car (1).jpg,0.08100354892057764,0.0928578636476831,0.08846185665868005,-0.07974360343737644,0.09160811055995352,0.09091569822021701,0.09154342461149986,0.09292120849146944,0.08991087554822869,0.09253577501008213,0.08911940027706626,0.08960738356201453,0.08959153617519572,0.09387918190707945,0.09082997928023091,-0.07407790560458966
0.17100000381469727,car (1).jpg,0.08102181029579762,0.09285109106911314,0.08844851266724023,-0.07923221787598346,0.09160131562963911,0.09090447764450045,0.09152983475087104,0.09290605400872874,0.089914720048275,0.09255070597537828,0.08913176079175004,0.08961922998657584,0.08959171498915136,0.093852650386411,0.0908398363995357,-0.0744310631669835
0.17100000381469727,car (1).jpg,0.08105265570314595,0.09286760900826561,0.08846845042329436,-0.07963966782565926,0.09159081030974511,0.090923208406354,0.09154809612609102,0.09292402481127081,0.08992218553092307,0.09254856020791057,0.08913097848069411,0.08961878295168674,0.08960311437882357,0.09386896715986337,0.09084227273968133,-0.07446628951624507
0.17100000381469727,car (1).jpg,0.08097860437376551,0.09284809593535613,0.08844768565269538,-0.0791668837269406,0.09161503960073467,0.09090414236833362,0.09153048295146024,0.09290869151457447,0.08990973560926147,0.09253995478629527,0.08912138958232278,0.08960912699808204,0.08958749050944931,0.09386943654649693,0.0908309851087314,-0.07411530007306338
0.17200016975402832,car (1).jpg,0.08105048758393378,0.09286447976404187,0.08846239310054697,-0.0792692547165459,0.09158899981844423,0.09091851454001838,0.09154266465218838,0.0929176769158455,0.08992486774025771,0.09255951256269367,0.08913985212324287,0.08962624843433481,0.08960503662884672,0.0938494987904428,0.09085016290547406,-0.07478784171197912
0.17200016975402832,car (1).jpg,0.08098727685061417,0.092860411746551,0.0884629295424139,-0.07953738624303176,0.09161090452801043,0.09091918509235204,0.0915461068208345,0.09292487417756011,0.08991541295235311,0.0925404912281622,0.0891216801550007,0.08960946227424887,0.0895956488961755,0.09388108180535815,0.09083382378027723,-0.07415271689328157
0.17200016975402832,car (1).jpg,0.08101584238002806,0.09285424266508134,0.08845273714694228,-0.07914274384292887,0.09160388608025147,0.09090941738002507,0.09153401452708418,0.0929105243576198,0.08991939156286616,0.09255622685625874,0.08913491238771824,0.08962186749242157,0.08959643120723143,0.09384963290090953,0.09084432910017122,-0.07465623464062626
0.17200016975402832,car (1).jpg,0.0810518286886011,0.09287467215951349,0.08847888868795499,-0.07975363937063687,0.09159494538246934,0.09093239497332513,0.0915568580099175,0.09293233966020818,0.0899330708304728,0.09256016076328287,0.08914047797208761,0.08962834949831361,0.08961391027139548,0.09386905656684119,0.0908535380188868,-0.07467918988218186
0.17200016975402832,car (1).jpg,0.08098689687095843,0.09285886947618359,0.08846120845809084,-0.07955303246415048,0.09162333209792758,0.09091641347603958,0.09154237407951046,0.09291899566876836,0.0899208220745113,0.09255139887945639,0.0891311796463942,0.08961943115227594,0.0895983981607435,0.09387095646511989,0.09084144572513649,-0.07431666693886124
0.17300009727478027,car (1).jpg,0.08107764495344698,0.09287717555489249,0.08847839694957697,-0.07972587850402338,0.0915983204958821,0.09093201499366939,0.09155504751861662,0.09293030565146275,0.0899391281532202,0.09257413060356744,0.0891532855216605,0.08964091117869749,0.0896188500069201,0.09385428206375623,0.09086475859460337,-0.07508460582311223
0.17300009727478027,car (1).jpg,0.08103557897038209,0.09287690733395902,0.08848530363861366,-0.0799852257949383,0.09162281800780511,0.09093597125243798,0.09156173069020876,0.09294150387543486,0.08993139444963866,0.09255595863532527,0.08913694639646368,0.08962636019305709,0.08961201037311678,0.09389071540721838,0.0908497382223294,-0.0742846815925457
0.6410000324249268,car (1).jpg,0.0810693301045096,0.0928713641013341,0.08847260784776305,-0.0798148384469555,0.09161901821124771,0.0909264047058111,0.09155111361159249,0.09292856221539524,0.0899370270892414,0.0925727000919223,0.08915172089954863,0.08964019592287492,0.08961529607955171,0.09386527912202824,0.09086140583293507,-0.07473426458051975
0.6410000324249268,car (1).jpg,0.08109954966301318,0.0928911230434326,0.08849806648469764,-0.08000815868474945,0.09161251385361122,0.0909487117467775,0.09157283950720305,0.09294990813135005,0.0899465265806349,0.09257308007157804,0.08915312905944932,0.08964298989093183,0.08962948943728083,0.09388939665429552,0.09086708317602672,-0.07464791979168889
0.6410000324249268,car (1).jpg,0.08103329909244765,0.09287076060423381,0.0884745300977862,-0.07986197827601174,0.0916389783190463,0.09092870693549,0.09155401933837168,0.0929351336282651,0.08992982982752679,0.09256051839119415,0.0891391815709092,0.08963004823089221,0.08960995401262689,0.09389610217763211,0.09085121343746345,-0.07405501741826742
0.6410000324249268,car (1).jpg,0.08111510647715407,0.09288305406368423,0.08848300140893477,-0.07984709201420451,0.09160904933322064,0.09093858640653925,0.09156092602740837,0.09293844168644448,0.08994118451371008,0.0925762987227796,0.08915435840539436,0.08964444275432143,0.08962349916976681,0.0938760526628557,0.0908665467341598,-0.07463453109676016
0.6410000324249268,car (1).jpg,0.08105325920024624,0.09287415806939102,0.08847904515016618,-0.07988904623854712,0.09162661780436251,0.09093369137450354,0.09155862379772947,0.0929391792940115,0.08992424189141296,0.09254864961488839,0.08912825156787056,0.08962045933252089,0.08960731650678116,0.09390908854116065,0.09084236214665915,-0.07388670878251896
0.6419999599456787,car (1).jpg,0.08105723781075928,0.09286262456925208,0.08845924150457878,-0.07932844213586356,0.09161740888564693,0.09091822396734046,0.09154130119577661,0.09291959916586866,0.08992788522575917,0.09256418407728483,0.0891416849662882,0.0896327527919713,0.08960823292830383,0.09387911485184608,0.09085297922527542,-0.07411670823296407
0.6419999599456787,car (1).jpg,0.08107487333713452,0.09288240586309503,0.08848280024323467,-0.07969228383210705,0.09160735060064204,0.09093992751120657,0.09156347412627627,0.09294139211671258,0.08993678122005239,0.09256261945517295,0.08914155085582147,0.08963371391698288,0.08962023581507633,0.093895409273554,0.09085586260031016,-0.07443390183852933
0.6419999599456787,car (1).jpg,0.08098828267911466,0.09285898123490587,0.08845698397838879,-0.0790828635195331,0.0916295235311417,0.09091656993825077,0.09154154706496562,0.09292326485195933,0.08992044209485556,0.09254920840849977,0.0891275810155369,0.08961954291099822,0.08959953809971072,0.09389637039856558,0.090840439896636,-0.07405182111881031
0.6419999599456787,car (1).jpg,0.08105629903749216,0.09287270520600142,0.08846909862388357,-0.0790776108595861,0.09159901339996021,0.09092779051396734,0.09155053246623665,0.09292744462817247,0.08993304847872835,0.09256637454824145,0.08914405425120046,0.08963469739373892,0.08961353029173974,0.09386840836625199,0.0908570919462552,-0.0746633201436186
0.6430001258850098,car (1).jpg,0.08099809509493054,0.0928677654704768,0.08846766811223843,-0.07922126552120036,0.09161984522579256,0.09092671763023348,0.09155162770171496,0.09293231730846373,0.08992205142045634,0.09254556507415355,0.08912393768119069,0.08961699481213031,0.08960289086137901,0.09390654044229274,0.09083889762626858,-0.07390760766358467
0.6430001258850098,car (1).jpg,0.0810084216008689,0.09285815422036102,0.08845354180974267,-0.07852733326284089,0.09161175389429974,0.09091373126670495,0.09153633910850753,0.09291606759024472,0.08992225258615644,0.09255803734755962,0.08913415242840676,0.08962591315816798,0.08960036511425556,0.09387117998256445,0.0908465419228723,-0.0741804554081506
0.6430001258850098,car (1).jpg,0.0810423739006965,0.09287444864206894,0.08847327840009671,-0.07905022997262835,0.09159624178364775,0.09093237262158067,0.09155511457384999,0.09293350195091986,0.08992784052227026,0.09255387992309093,0.08913102318418302,0.08962459440524512,0.0896097528469268,0.0938861556513495,0.09084672073682794,-0.07431925974121806
0.6430001258850098,car (1).jpg,0.08096561801023698,0.09284883354292316,0.08844634454802806,-0.07839029471758541,0.09161819119670286,0.09090733866779073,0.09153128761426063,0.09291336302916563,0.08990872978076098,0.09253763020487192,0.0891147287624751,0.08960843409400393,0.08958778108212723,0.09388738499729454,0.09082841465811904,-0.07379578188607477
0.6430001258850098,car (1).jpg,0.08105178398511219,0.09286135051981813,0.08845720749583334,-0.07838658432800583,0.09158544589107584,0.09091703932488433,0.09153926718703118,0.09291575466582234,0.08992189495824515,0.09255517632426934,0.08913196195745014,0.08962434853605611,0.08960248852997882,0.09385971353765887,0.09084513376297161,-0.07448475205716515
0.6440000534057617,car (1).jpg,0.08100739342062395,0.09285533790055965,0.08845430176905415,-0.07849161517520131,0.0916044225221184,0.09091422300508296,0.09153949070447573,0.09291948740714638,0.08990604757142634,0.09252895772802326,0.08910728563157148,0.08960192973636744,0.08958753521293822,0.09389362113399757,0.09082244674234947,-0.07408420879652605
0.6440000534057617,car (1).jpg,0.08102739823191145,0.0928410104323638,0.08843572746941179,-0.07775378409073164,0.09159284431849055,0.09089636396126317,0.09151982116935506,0.09289939318888106,0.08990568994351505,0.09254037946943992,0.0891172321578541,0.08960990930913798,0.08958447302394784,0.09385593609284593,0.090829688707553,-0.074349546354955
0.6440000534057617,car (1).jpg,0.08106727374401972,0.09285907064188369,0.088457878048167,-0.07821501233756689,0.09158064026601795,0.09091665934522859,0.09154036242250949,0.09291819100596797,0.08991404949594134,0.09253892660605033,0.08911750037878756,0.08961113865508302,0.08959681118688717,0.09387135879652009,0.09083317557968802,-0.07437891654716927
0.6440000534057617,car (1).jpg,0.08099789392923044,0.09283383552239365,0.08843163710017647,-0.07755539000694632,0.0916040201907182,0.0908916477431831,0.09151718366350933,0.09289896850573641,0.08989502816140987,0.0925232356814427,0.08910138477103528,0.089594643067675,0.08957432533196513,0.09387198464536484,0.09081489185272358,-0.07381844655495245
0.6449999809265137,car (1).jpg,0.08108178002617121,0.09284782771442267,0.08844390820788244,-0.07755456299240147,0.09157344300430334,0.09090327065029986,0.09152616906478037,0.09290328239241628,0.08991103201043987,0.09254330754796357,0.08912109900964486,0.0896123009457947,0.08959146911996235,0.09384565429039649,0.09083469549831098,-0.07449018353106779
0.6449999809265137,car (1).jpg,0.08102824759820075,0.09284525726381031,0.08844390820788244,-0.07768511953176493,0.09159519125165835,0.09090371768518897,0.09152974534389322,0.09290996556400842,0.08989949851030093,0.09252126872793064,0.08910028953555697,0.08959350312870779,0.08958087439309054,0.09388412164260407,0.09081585297773516,-0.07384973899718988
0.6449999809265137,car (1).jpg,0.08102961105461252,0.0928344613712384,0.0884298713123645,-0.07702104920399776,0.0915884186730884,0.09089019487979351,0.09151485908208598,0.0928923747411221,0.08990070550450152,0.09253447860890372,0.0891113760008068,0.08960295791661238,0.08957857216341164,0.09384898470032033,0.0908240337162058,-0.07410866160496016
0.6449999809265137,car (1).jpg,0.08107578975865719,0.09285368387146996,0.08845079254517467,-0.07751479923901548,0.09157529819909313,0.0909104008567811,0.09153502035558467,0.09291115020646455,0.08990888624297216,0.09253320455946977,0.08911101837289552,0.08960380728290168,0.08959053034669523,0.09386472032841686,0.09082667122205153,-0.07446329438248805
0.6449999809265137,car (1).jpg,0.0810095168363472,0.09283189092062603,0.08842707734430759,-0.07692681424937418,0.09160095800172782,0.09088858555419273,0.0915147473233637,0.09289422993591188,0.08989236830381969,0.09251997232675223,0.08909686971865531,0.0895897927391282,0.08957007850051862,0.093868654235441,0.0908113826288441,-0.0740486248193532
0.6449999809265137,car (1).jpg,0.08109706861937864,0.09284599487137733,0.08843910258282454,-0.0769565644212442,0.09157002318740168,0.09089989553688711,0.0915235539106791,0.09289789562200255,0.08990642755108208,0.09253915012349488,0.08911490757643074,0.08960700358235879,0.08958568001814843,0.09384160862465007,0.09083006868720873,-0.07466801400995421
0.6460001468658447,car (1).jpg,0.08105992002009392,0.09284320090332042,0.08843921434154682,-0.07709869916423549,0.09159123499288976,0.0909004990339874,0.09152724194851422,0.09290375177904985,0.0898949164026876,0.0925169324895063,0.08909378517792048,0.08958831752399415,0.08957475001510978,0.09387891368614598,0.09081127087012182,-0.07391934232942371
0.6460001468658447,car (1).jpg,0.08107114059581048,0.09283332143227117,0.08842466335590642,-0.07643713223184731,0.09158439535908644,0.09088661860068066,0.09151208746577352,0.09288663034279708,0.08989598928642145,0.0925299412047793,0.0891044246082812,0.0895979958293433,0.08957291717206445,0.09384426848224026,0.09081960807080365,-0.07419701805079199
0.6460001468658447,car (1).jpg,0.0810926876774654,0.09285055462724622,0.08844435524277154,-0.07690457426364115,0.09157015729786841,0.09090613167359014,0.09153184640787201,0.09290359531683866,0.0899033653620917,0.09252822012045624,0.0891033740762918,0.08959821934678786,0.08958404834080319,0.09385781363938017,0.09082208911443819,-0.07433783404086042
0.6460001468658447,car (1).jpg,0.0810160211939837,0.09282777819964626,0.08842050593143773,-0.07632729575959393,0.09159478892025816,0.09088380228087929,0.09151027697447264,0.09288774793001985,0.08988655685026131,0.09251447379761622,0.08908866662844021,0.08958402598905874,0.08956328357020421,0.09386087582837055,0.09080561587877463,-0.07382048056369789
0.6460001468658447,car (1).jpg,0.08109342528503242,0.092841658632953,0.08843228530076568,-0.07635141329186121,0.09156553048676616,0.09089412878681764,0.09151910591353249,0.09288969253178746,0.08990052669054588,0.09253340572516987,0.08910699505889356,0.0896011474253115,0.08957892979132293,0.09383251146465676,0.0908240337162058,-0.0744908764351459
0.6470000743865967,car (1).jpg,0.08102654886562215,0.0928372106358064,0.08843159239668756,-0.0765224041369443,0.09158497650444228,0.09089339117925062,0.09152116227402238,0.0928957722062793,0.08988731680957279,0.0925103834283809,0.08908506799758291,0.08958183551810212,0.08956748569816181,0.0938686989389299,0.09080411831189612,-0.0738727389422344
0.6470000743865967,car (1).jpg,0.08102270436557583,0.09282587830136756,0.0884165720244136,-0.07589825402477432,0.09157775689098321,0.09087884019361021,0.09150484550057,0.09287970130201594,0.0898888143764513,0.09252377212330963,0.08909655679423294,0.08959220672752938,0.08956601048302776,0.09383651242691426,0.09081285784397815,-0.07414031167510887
0.6470000743865967,car (1).jpg,0.08104358089489709,0.0928452125603214,0.08843946021073583,-0.07639410512377084,0.09156608928037754,0.09089994024037602,0.09152585614035799,0.09289820854642493,0.08989835857133371,0.09252386153028745,0.08909800965762253,0.08959506775081966,0.08957955564016767,0.09385287390385555,0.09081764111729158,-0.07431233070043691
0.6470000743865967,car (1).jpg,0.08096286874566898,0.09282420192053341,0.08841800253605873,-0.07585513750972003,0.09159253139406817,0.09087966720815506,0.09150665599187088,0.09288412694741809,0.08988358406824876,0.09251179158828159,0.08908558208770538,0.08958288605009151,0.08956111545099205,0.09385998175859234,0.09080315718688454,-0.07380340383093403
0.6480000019073486,car (1).jpg,0.0810472242292433,0.09283848468524035,0.0884302736437647,-0.07589402954507227,0.0915631612018539,0.09089068661817153,0.09151506024778608,0.09288768087478648,0.08989724098411095,0.09253067881234632,0.089103776407692,0.08959980632064418,0.08957611347152156,0.09383320436873488,0.09082119504465998,-0.07447254800469255
0.6480000019073486,car (1).jpg,0.08098884147272604,0.09283477429566077,0.08843043010597589,-0.07608169479151902,0.09158169079800735,0.09089073132166044,0.0915174518844428,0.09289402877021179,0.08988434402756024,0.09250714242543488,0.08908171523591461,0.08958022619250133,0.08956415528823797,0.09386896715986337,0.09080125728860584,-0.07387419180562399
0.6480000019073486,car (1).jpg,0.08099554699606264,0.09282221261527689,0.08841422509124579,-0.07545182263276846,0.09157400179791472,0.09087474982437489,0.09149972695108974,0.09287404631066874,0.08988479106244934,0.09251907825697402,0.08909172881743059,0.08958945746296137,0.0895615401341367,0.0938357971710917,0.09080845455032045,-0.0741256936342351
0.6480000019073486,car (1).jpg,0.08103001338601272,0.09283884231315163,0.08843384992287755,-0.0759150178331158,0.09155989784716342,0.09089377115890636,0.09151861417515447,0.09289324645915585,0.08989198832416395,0.0925168877860174,0.08909041006450773,0.0895897927391282,0.08957282776508663,0.09384835885147558,0.0908107344282549,-0.07431320241847067
0.6480000019073486,car (1).jpg,0.08095312338508646,0.09281537298147356,0.08840919594874334,-0.0753452271634611,0.09158278603348566,0.09087025712373938,0.09149682122431055,0.0928753203601027,0.0898736598937106,0.0925010851026875,0.08907355684918843,0.08957367713137593,0.08955072188982033,0.0938503481567321,0.0907922271838459,-0.07379392669128498
0.6480000019073486,car (1).jpg,0.0810316227116135,0.09282806877232418,0.08841965656514843,-0.07533018443944269,0.09155151594299268,0.0908800471878108,0.09150312441624694,0.09287688498221457,0.08988769678922853,0.09252017349245233,0.08909195233487514,0.08959070916065087,0.08956560815162756,0.09382196144127386,0.09081046620732143,-0.07445931577197501
0.6480000019073486,car (1).jpg,0.08097538572256395,0.09282614652230102,0.08842104237330466,-0.07549330747047751,0.0915720124926582,0.09088167886515604,0.09150795239304929,0.09288448457532937,0.08987716911759008,0.09249860405905296,0.08907199222707655,0.08957311833776455,0.08955704743350118,0.09385924415102531,0.09079352358502431,-0.07385628805831529
0.6490001678466797,car (1).jpg,0.0809749610394193,0.09281414363552852,0.08840494911729684,-0.07484273759636136,0.09156613398386645,0.09086547385042594,0.09149201559925266,0.09286879365072175,0.08987638680653415,0.09250962346906942,0.0890814246632367,0.08958098615181281,0.08955391818927744,0.09382538125817552,0.09080025146010536,-0.0740944905989755
0.6490001678466797,car (1).jpg,0.0810076169380685,0.09283142153399247,0.08842479746637315,-0.07531634870962485,0.09155196297788179,0.09088474105414641,0.09151186394832897,0.09288709972943064,0.08988470165547152,0.0925095340620916,0.08908236343650382,0.08958293075358043,0.08956654692489469,0.09383872524961534,0.09080469945725196,-0.07430236182240985
0.6490001678466797,car (1).jpg,0.08093081634412007,0.0928092039000039,0.08840213279749547,-0.07476888743268102,0.09157813687063895,0.09086301515853586,0.09149210500623048,0.0928696653687555,0.08986887662039716,0.09249634653286297,0.08906855005843044,0.0895693408929516,0.08954714561070748,0.0938450954967851,0.09078905323613325,-0.07379343495290697
0.6490001678466797,car (1).jpg,0.08100564998455644,0.0928235537199442,0.08841424744299024,-0.07477481064496168,0.091550107783092,0.09087468276914153,0.09150015163423439,0.09287221346762341,0.08988190768741461,0.09251547962611671,0.08908665497143924,0.08958581412861516,0.08956104839575868,0.0938172899266827,0.09080671111425294,-0.07447563254542738
0.6490001678466797,car (1).jpg,0.08094398152160424,0.09281993273734244,0.08841489564357945,-0.07497378587410282,0.0915692632280902,0.09087573330113093,0.0915027444365912,0.09287867312177099,0.08986997185587547,0.09249303847468358,0.08906557727641788,0.08956672573885033,0.08954993957876439,0.09385392443584495,0.09078789094542157,-0.07389075444826537
0.6500000953674316,car (1).jpg,0.08094559084720503,0.0928083545337146,0.08839958469862756,-0.07435676596841406,0.09156383175418756,0.09086002002477885,0.0914858912212719,0.09286007647038418,0.08987229643729883,0.09250656128007904,0.08907699901783454,0.0895766946168774,0.08954817379095242,0.09382265434535197,0.09079658577401468,-0.0741503029048804
0.6500000953674316,car (1).jpg,0.08097652566153117,0.09282905224908021,0.08842374693438375,-0.0748660728175727,0.09155147123950377,0.09088322113552345,0.09150846648317176,0.09288171295901691,0.08988239942579263,0.09250705301845706,0.08907885421262433,0.0895798909163345,0.08956225538995927,0.09383653477865872,0.09080179373047277,-0.07433260373265788
0.6500000953674316,car (1).jpg,0.08089109729422299,0.0928071028360251,0.08840224455621774,-0.07437587670992335,0.09157614756538243,0.09086326102772486,0.091488595782351,0.09286653612453176,0.08986682025990728,0.09249368667527279,0.08906479496536195,0.08956699395978379,0.08954318935193889,0.09384332970897313,0.0907859239919095,-0.07381567493864
0.6530001163482666,car (1).jpg,0.0809802136993663,0.09282049153095383,0.08841346513193431,-0.07441680275402102,0.09154574919292321,0.09087450395518588,0.0914963965411659,0.09287000064492233,0.08988092421065857,0.0925131326929489,0.0890835704307044,0.08958454007918121,0.08955899203526879,0.09381619469120439,0.09080461005027414,-0.07449246340900223
0.6540000438690186,car (1).jpg,0.08093121867552026,0.0928184575222084,0.08841487329183499,-0.07465643580632636,0.09156436819605449,0.09087620268776449,0.09150062102086795,0.09287666146477001,0.08987122355356497,0.09249250203281666,0.08906483966885086,0.08956831271270665,0.08955054307586469,0.09385417030503396,0.09078795800065494,-0.07390633361415072
0.6540000438690186,car (1).jpg,0.08095088821064093,0.09280864510639251,0.08840047876840577,-0.07403668898781407,0.0915595625709966,0.0908621434405021,0.09148477363404914,0.09286132816807367,0.08986932365528627,0.09250291794573283,0.08907337803523278,0.08957604641628819,0.08954616213395145,0.0938208438540511,0.09079312125362411,-0.07415314157642622
0.6540000438690186,car (1).jpg,0.08099907857168658,0.09282438073448905,0.08841836016397002,-0.07450712615336491,0.09154136825100997,0.09088000248432189,0.09150182801506854,0.09287954483980475,0.08987741498677909,0.0925034320358553,0.08907505441606693,0.08957913095702302,0.08955948377364681,0.09383307025826815,0.09079765865774854,-0.07435061923868885
0.6540000438690186,car (1).jpg,0.08091738294570243,0.09280484530983511,0.08839857887012707,-0.07397799330687443,0.09156941969030138,0.09086198697829091,0.09148450541311567,0.09286640201406503,0.08986181346914929,0.0924899762856932,0.0890616657211382,0.08956605518651667,0.08954086477051554,0.093839395801949,0.09078221360232992,-0.07383614913656106
0.6549999713897705,car (1).jpg,0.0810017160775323,0.09281809989429711,0.08840888302432097,-0.07398384946392172,0.09154011655332048,0.09087208996678471,0.09149275320681968,0.0928700677001557,0.08987790672515711,0.09251199275398168,0.08908352572721549,0.08958621646001536,0.08955874616607978,0.09381371364756985,0.09080342540781801,-0.07450100177538416
0.6549999713897705,car (1).jpg,0.08093957822794655,0.09281774226638582,0.08841145347493333,-0.07421892276035819,0.09156070250996381,0.0908755991906642,0.09149961519236746,0.09288072948226088,0.08986628381804035,0.09248957395429301,0.08906358797116136,0.089567642160373,0.08954875493630826,0.09384976701137626,0.09078518638434248,-0.07388523356738491
0.6549999713897705,car (1).jpg,0.08093982409713556,0.0928054488069354,0.08839451085263621,-0.07361213995362996,0.09155632156805057,0.09085823188522242,0.09148202436948114,0.09286021058085091,0.08986623911455144,0.09250110745443195,0.08907398153233308,0.08957600171279928,0.08954484338102858,0.09381594882201538,0.0907917801489568,-0.07410206784034584
0.6560001373291016,car (1).jpg,0.0809846616965129,0.09282594535660092,0.08841686259709151,-0.07411152262825044,0.09154548097198975,0.09087955544943278,0.09150370556160278,0.09287867312177099,0.08987862198097968,0.0925046837335448,0.08907950241321354,0.08958167905589093,0.08956107074750314,0.09382935986868857,0.09079993853568298,-0.07432039968018528
0.6560001373291016,car (1).jpg,0.08090365897460687,0.09280406299877918,0.08839413087298047,-0.07359133047954207,0.0915718113269581,0.09085780720207777,0.09148551124161616,0.09286289279018554,0.08985964534993712,0.09248785286996995,0.08906202334904949,0.08956444586091589,0.08953887546525902,0.09383463488038002,0.09078098425638488,-0.07376270130428092
0.6570000648498535,car (1).jpg,0.08097943138831036,0.09281387541459506,0.08840150694865072,-0.07356837523798647,0.09153922248354227,0.09086518327774802,0.09148978042480713,0.09286526207509781,0.08986932365528627,0.09250273913177719,0.08907628376201197,0.08957725341048878,0.089549134915964,0.09380133078114161,0.0907947305792249,-0.07442563169308086
0.6570000648498535,car (1).jpg,0.08091972987887024,0.09280915919651499,0.08839994232653885,-0.07376609876943813,0.0915541087453495,0.09086422215273644,0.09149089801202989,0.09286897246467739,0.08986022649529296,0.0924819296576893,0.08905677068910249,0.08956010962249156,0.08954086477051554,0.09384069220312741,0.09077769854994995,-0.07384314523257557
1.121999979019165,car (1).jpg,0.08093021284701978,0.09280211839701157,0.08838630776242111,-0.0730820459821279,0.0915496607482029,0.09085074405082989,0.0914757882327781,0.09285182867668017,0.0898599582743595,0.0924930831781725,0.08906555492467343,0.08956791038130646,0.08953697556698031,0.09380924329867879,0.09078359941048615,-0.07404864717109766
1.121999979019165,car (1).jpg,0.0809802584028552,0.09281991038559799,0.08840577613184168,-0.0735377533480827,0.0915318017043831,0.09087005595803928,0.0914936472765979,0.09286892776118848,0.08986746846049648,0.09249218910839428,0.08906553257292897,0.08956898326504031,0.08954909021247509,0.09382015094997298,0.09078706393087672,-0.07430160186309837
1.121999979019165,car (1).jpg,0.08090660940487497,0.09279563639111953,0.08838123391642976,-0.0729998809695102,0.09155471224244979,0.09084748069613942,0.09147256958157654,0.09285312507785858,0.08984983293412124,0.09247634172157547,0.08904930520645442,0.08955309117473259,0.08952799016570928,0.09382810817099907,0.09076900372135684,-0.07375930383912371
1.123000144958496,car (1).jpg,0.08099679869375213,0.09280918154825944,0.08839290152703543,-0.07296700155341644,0.09152661609966947,0.09085852245790034,0.09148028093341362,0.09285676841220479,0.08986346749823898,0.09249625712588515,0.08906819243051915,0.08957043612842991,0.08954274231704978,0.09379858151657361,0.09078748861402137,-0.07444322251596719
1.123000144958496,car (1).jpg,0.08095059763796301,0.09280632052496916,0.08839375089332473,-0.07319286593113732,0.09154282111439957,0.09085966239686756,0.09148291843925935,0.09286298219716337,0.08985186694286668,0.09247383832619648,0.08904729354945344,0.08955177242180973,0.0895322817006447,0.09383315966524597,0.09076860138995664,-0.07386831329683224
1.123000144958496,car (1).jpg,0.08095582794616556,0.09279505524576369,0.08837893168675086,-0.07254430771402212,0.09153949070447573,0.09084453026587132,0.09146707105244054,0.09284599487137733,0.08985061524517718,0.09248438834957938,0.08905585426757982,0.08955912614573552,0.08952814662792047,0.09379940853111846,0.09077409991909265,-0.074098737430422
1.123000144958496,car (1).jpg,0.08100196194672131,0.09281157318491616,0.08839790831779341,-0.0730382365629955,0.09152111757053347,0.09086276928934685,0.09148528772417161,0.09286257986576317,0.08985964534993712,0.09248534947459096,0.08905802238679199,0.08956236714868154,0.08954142356412692,0.09380937740914552,0.09077915141333955,-0.07433783404086042
1.128000020980835,car (1).jpg,0.08091078918108811,0.0927904954898948,0.08837589184950492,-0.07255548358624977,0.09154729146329063,0.09084160218734767,0.09146481352625055,0.09284427378705427,0.08984379796311831,0.09247059732325046,0.08904344904940713,0.0895482855496747,0.08952226811912872,0.09381800518250527,0.0907627228811649,-0.07378489658652504
1.128000020980835,car (1).jpg,0.08099130016461613,0.09280607465578015,0.08838936995141149,-0.07256071389445232,0.09152096110832228,0.09085331450144225,0.0914757435292892,0.09284959350223464,0.08986031590227078,0.0924926808467723,0.08906506318629541,0.08956813389875101,0.08954035068039307,0.09379011020542505,0.09078433701805318,-0.07447415733029333
1.128000020980835,car (1).jpg,0.08092665891965138,0.09280573937961333,0.08839254389912414,-0.072844446938568,0.09154016125680939,0.09085727076021084,0.09148213612820341,0.0928610152436513,0.08985054818994381,0.09247249722152916,0.08904593009304167,0.08955128068343171,0.08953232640413361,0.09383056686288915,0.09076759556145615,-0.07388219373013899
1.129000186920166,car (1).jpg,0.08092478137311714,0.09279458585913013,0.08837638358788294,-0.07227968541141574,0.09153732258526356,0.0908425856641037,0.091464835877995,0.0928465089614998,0.0898511516870441,0.09248423188736819,0.08905612248851329,0.08955966258760245,0.08952946538084333,0.09379956499332964,0.09077479282317076,-0.07411255080849538
1.130000114440918,car (1).jpg,0.08096593093465936,0.09281436715297307,0.08840009878875003,-0.07280747715323892,0.09152232456473405,0.09086348454516942,0.09148678529105012,0.09286459152276415,0.08986194757961602,0.09248664587576937,0.0890601681542597,0.08956417763998242,0.08954531276766214,0.0938109420312574,0.09078190067790755,-0.07435149095672261
1.130000114440918,car (1).jpg,0.08087509344519299,0.09279246244340687,0.08837732236115006,-0.0723870855435235,0.09154834199528003,0.09084222803619242,0.09146765219779637,0.0928484088597785,0.08984534023348573,0.09247155844826203,0.08904479015407445,0.08954920197119737,0.08952530795637464,0.09382104501975119,0.09076430985502122,-0.0737817673423013
1.130000114440918,car (1).jpg,0.08096070062645681,0.09280640993194698,0.08838988404153396,-0.07247921943416827,0.09152011174203298,0.09085295687353097,0.09147538590137791,0.09285147104876888,0.08985944418423703,0.09249178677699409,0.08906430322698393,0.08956715042199498,0.08954061890132653,0.09379024431589178,0.09078346530001942,-0.0744786276791844
1.130000114440918,car (1).jpg,0.08090721290197526,0.0928054041034465,0.08839292387877988,-0.07278680178961776,0.09153817195155287,0.09085655550438827,0.09148137616889193,0.09285918240060596,0.08984918473353204,0.09247032910231699,0.0890444101744187,0.08954962665434202,0.08953199112796678,0.09382835404018808,0.09076594153236646,-0.07387428121260181
1.130000114440918,car (1).jpg,0.08091613124801293,0.09279335651318509,0.08837593655299383,-0.07225377973959204,0.09153638381199644,0.09084102104199183,0.0914639865117057,0.09284163628120855,0.08984914003004313,0.09248186260245593,0.08905370850011211,0.08955760622711256,0.08952839249710948,0.09379679337701718,0.09077244589000295,-0.07409916211356665
1.13100004196167,car (1).jpg,0.0809655062515147,0.0928126013651611,0.0883980647800046,-0.07278977457163031,0.09152026820424417,0.09086133877770171,0.09148370075031528,0.0928599647116619,0.08985933242551475,0.09248358368677899,0.08905663657863576,0.0895613389684366,0.08954280937228315,0.09380642697887742,0.09077892789589499,-0.07436190686963878
1.13100004196167,car (1).jpg,0.0809010438205056,0.09279382589981865,0.08837662945707195,-0.07237233339218299,0.09154847610574676,0.09084122220769193,0.09146666872104034,0.09284561489172159,0.08984326152125138,0.09246883153543849,0.08904137033717278,0.08954663152058501,0.08952316218890694,0.0938164405603934,0.09076200762534233,-0.07380018517973247
1.13100004196167,car (1).jpg,0.080990361391349,0.0928054041034465,0.08838729123917714,-0.07243661700923645,0.09151953059667714,0.09084980527756277,0.09147241311936535,0.09284814063884504,0.08985703019583585,0.09248850107055916,0.08906072694787108,0.08956397647428233,0.08953764611931397,0.09378539398734498,0.09078051486975132,-0.07448291921411981
1.1319999694824219,car (1).jpg,0.08092203210854913,0.09280341479818997,0.08839106868399009,-0.07271087291370307,0.09153727788177465,0.09085396270203146,0.09147936451189095,0.0928589141796725,0.08984851418119838,0.09246918916334977,0.0890424655726511,0.08954806203223015,0.08953105235469966,0.09382390604304147,0.09076484629688815,-0.07389426367214486
1.1319999694824219,car (1).jpg,0.08091896991955876,0.09279042843466144,0.08837361197157048,-0.07222166028280977,0.09153519916954031,0.09083722124543443,0.09146177368900463,0.09283779178116223,0.08984612254454166,0.09247815221287635,0.0890494616686656,0.0895535382096217,0.08952483856974108,0.09379022196414732,0.09076864609344555,-0.07410557706422533
1.1319999694824219,car (1).jpg,0.08096054416424563,0.09280871216162588,0.08839544962590333,-0.07274665805657601,0.09151937413446595,0.09085827658871133,0.09148191261075886,0.09285884712443913,0.08985671727141348,0.09248134851233346,0.08905328381696746,0.08955803091025721,0.08953981423852614,0.09380077198753023,0.0907757762999268,-0.07436045400624919
1.133000135421753,car (1).jpg,0.08087536166612645,0.09278667334159295,0.08837242732911435,-0.07235744713037576,0.09154568213768985,0.09083744476287899,0.09146257835180502,0.09284344677250943,0.08984098164331694,0.09246690928541533,0.08903812933422676,0.0895436810903169,0.08952083760748358,0.09381237254290253,0.09075910189856314,-0.07379971579309891
1.133000135421753,car (1).jpg,0.08095716905083288,0.0928012019754889,0.08838563721008745,-0.07242870449169928,0.09152035761122199,0.09084850887638436,0.09147201078796516,0.0928467101271999,0.08985642669873556,0.09248845636707025,0.08905902821529248,0.08956272477659283,0.08953764611931397,0.09378514811815597,0.09077950904125083,-0.0744782253477842
1.133000135421753,car (1).jpg,0.080904597747874,0.09280021849873286,0.0883888111578001,-0.07272549095457684,0.09153707671607456,0.09085219691421949,0.09147777753803463,0.09285627667382677,0.089845206123019,0.09246659636099296,0.08903868812783815,0.0895444857531173,0.08952834779362057,0.09382104501975119,0.09076149353521985,-0.07391453670436582
1.133000135421753,car (1).jpg,0.08091695826255778,0.09278443816714742,0.08836757700056755,-0.07223048922186961,0.09153072882064925,0.0908318344750207,0.09145558225579051,0.09283316497005999,0.08983986405609418,0.09247234075931797,0.08904277849707347,0.08954712325896302,0.08951909417141607,0.09378626570537874,0.09076223114278688,-0.07411760230274228
1.133000135421753,car (1).jpg,0.08097710680688701,0.09280444297843492,0.08839017461421188,-0.07273067655929047,0.0915159990210532,0.0908526439491086,0.09147648113685622,0.09285160515923561,0.08985242573647806,0.0924770793291425,0.08904885817156531,0.08955364996834397,0.089535880331502,0.09379797801947332,0.09077141770975801,-0.07437216632034377
1.133000135421753,car (1).jpg,0.08090365897460687,0.09278316411771347,0.08836764405580091,-0.07235065220006134,0.09154268700393284,0.09083252737909882,0.0914578844854694,0.09283913288582955,0.08983391849206906,0.09245933204404498,0.0890307085550676,0.08953621560766883,0.08951390856670244,0.09380609170271059,0.09075165876765952,-0.07381370798512793
1.1340000629425049,car (1).jpg,0.08100598526072326,0.09279407176900765,0.08837631653264957,-0.07241100191009067,0.09151318270125183,0.09083927760592432,0.0914624889448272,0.09283915523757401,0.08984989998935461,0.09248141556756682,0.08905198741578906,0.08955566162534495,0.08953096294772184,0.09377904609191967,0.09077240118651404,-0.07447780066463955
1.1340000629425049,car (1).jpg,0.08096311461485799,0.09279758099288714,0.08838358084959756,-0.0727093082915912,0.09153262871892795,0.09084683249555021,0.09147230136064308,0.0928507110894574,0.08984104869855031,0.09246143310802378,0.08903352487486897,0.08953930014840367,0.08952365392728495,0.0938147418278148,0.09075619617178395,-0.07391341911714305
1.1340000629425049,car (1).jpg,0.0809718094434511,0.09278278413805773,0.08836371014877678,-0.07221996155023117,0.09152862775667045,0.09082810173369667,0.0914517824592331,0.09283008042932515,0.08983691362582608,0.09246914445986086,0.0890389116452827,0.08954334581415008,0.08951596492719233,0.09378244355707688,0.0907585207532073,-0.07410743225901512
1.1340000629425049,car (1).jpg,0.08102225733068673,0.09280048671966633,0.08838467608507587,-0.07271111878289208,0.0915113498582065,0.09084725717869487,0.09147089320074239,0.09284709010685564,0.08984797773933145,0.09247272073897371,0.08904394078778514,0.08954850906711925,0.08953134292737758,0.09379078075775871,0.0907663215120222,-0.07437361918373336
1.1340000629425049,car (1).jpg,0.08094581436464958,0.09278037014965655,0.08836366544528787,-0.07233793405746627,0.0915385072277197,0.0908280346784633,0.09145354824704507,0.09283428255728275,0.08983150450366789,0.09245738744227737,0.08902831691841089,0.08953324282565628,0.089511874557957,0.09380162135381953,0.09074890950309152,-0.07382428036025529
1.1340000629425049,car (1).jpg,0.08103274029883627,0.09279176953932876,0.08837258379132554,-0.07240270941289775,0.09151003110528363,0.09083554486460028,0.09145826446512514,0.09283347789448236,0.0898441555910296,0.0924762746663421,0.08904660064537533,0.08954949254387529,0.08952584439824157,0.0937722288098608,0.09076663443644457,-0.07449118935956828
1.1340000629425049,car (1).jpg,0.08097788911794294,0.09279324475446281,0.08837808232046154,-0.07271317514338196,0.09152766663165887,0.09084133396641421,0.09146700399720717,0.09284467611845447,0.08983803121304884,0.09245913087834488,0.0890311108864678,0.08953619325592438,0.0895219328429619,0.09381170199056887,0.09075353631419376,-0.07392417030622606
1.1349999904632568,car (1).jpg,0.08097788911794294,0.09278229239967971,0.08836219023015382,-0.07222499069273361,0.09152847129445926,0.09082671592554044,0.09145106720341054,0.09282898519384684,0.08983590779732559,0.09246755748600453,0.0890384646103936,0.0895417811920382,0.08951638961033698,0.09378195181869886,0.09075744786947344,-0.07411380250618488
1.1349999904632568,car (1).jpg,0.08102346432488731,0.09279957029814366,0.08838337968389746,-0.0727404666233619,0.0915113498582065,0.09084598312926091,0.09146975326177517,0.0928469112929,0.08984800009107591,0.0924720278348956,0.0890445666366299,0.08954826319793024,0.08953277343902272,0.09379185364149256,0.0907663215120222,-0.07438571147748368
1.1349999904632568,car (1).jpg,0.08094543438499384,0.09277978900430071,0.08836353133482114,-0.07238341985743282,0.09153879780039761,0.09082787821625211,0.09145339178483389,0.09283504251659423,0.08983289031182412,0.09245747684925519,0.08902974743005602,0.08953456157857914,0.08951415443589145,0.09380430356315417,0.09074982592461418,-0.0738415806104637
1.1349999904632568,car (1).jpg,0.08104344678443036,0.09279232833294014,0.08837417076518186,-0.07242555289573108,0.09151166278262887,0.09083672950705642,0.09145880090699207,0.09283591423462799,0.08984522847476345,0.09247605114889755,0.08904778528783146,0.08955099011075379,0.08952740902035344,0.09377424046686178,0.09076710382307814,-0.07450484627543047
1.1349999904632568,car (1).jpg,0.0810040183072112,0.0927917471875843,0.08837779174778362,-0.07274415466119702,0.09152641493396937,0.09084039519314709,0.0914652382093952,0.09284474317368784,0.08983628777698133,0.09245658277947698,0.08902972507831157,0.08953529918614617,0.0895207258487613,0.09381065145857947,0.09075127878800378,-0.07393789427732161
1.1349999904632568,car (1).jpg,0.08101123792067026,0.09277972194906735,0.08836029033187512,-0.07222899165499111,0.09152623612001373,0.090824681916795,0.09144789325569788,0.0928273535165016,0.08983584074209222,0.09246737867204889,0.0890384646103936,0.08954296583449434,0.08951674723824826,0.09378248826056579,0.09075688907586206,-0.0741315944947713
1.1349999904632568,car (1).jpg,0.08106653613645269,0.09279968205686594,0.08838320086994182,-0.0727293578063676,0.0915107463611062,0.09084609488798319,0.0914690380059526,0.09284583840916615,0.08984643546896404,0.09247075378546164,0.0890431137732403,0.0895478832182745,0.08953161114831104,0.09378932789436911,0.09076453337246577,-0.07440466575678178
1.1349999904632568,car (1).jpg,0.08098461699302399,0.09277902904498923,0.08836158673305353,-0.07237219928171626,0.0915372555300302,0.09082624653890688,0.09145140247957737,0.0928315556444592,0.08983179507634581,0.09245638161377688,0.08902845102887762,0.08953422630241231,0.08951346153181333,0.09380197898173082,0.09074837306122459,-0.07383116469754752
1.1349999904632568,car (1).jpg,0.08106360805792905,0.09279268596085143,0.088372852012259,-0.07241692512237133,0.0915109475268063,0.09083661774833414,0.09145889031396989,0.09283586953113908,0.08984583197186374,0.09247690051518685,0.089047762936087,0.08955221945669883,0.08952810192443156,0.0937732793418502,0.0907671708783115,-0.07449854308349407
1.1349999904632568,car (1).jpg,0.08101595413875033,0.0927940494172632,0.0883775011751057,-0.07275005552173322,0.091526102009547,0.09084151278036985,0.09146622168615123,0.09284519020857694,0.08983787475083765,0.0924577227184442,0.08903003800273394,0.0895366849943024,0.08952202224993971,0.09380913153995651,0.09075199404382635,-0.07394138114945664
1.136000156402588,car (1).jpg,0.08100757223457959,0.09278012428046754,0.08836035738710848,-0.07224081572780797,0.09152612436129146,0.0908248830824951,0.09144901084292065,0.09282594535660092,0.08983568427988103,0.09246675282320414,0.0890374587818931,0.08954309994496107,0.08951659077603707,0.09378045425182036,0.09075628557876177,-0.07412216205861116
1.136000156402588,car (1).jpg,0.08106631261900814,0.09280012909175504,0.08838284324203054,-0.0727388125942722,0.09151038873319492,0.09084607253623873,0.09147006618619755,0.09284814063884504,0.08984849182945392,0.09247276544246262,0.08904454428488544,0.08955076659330924,0.08953411454369004,0.09379084781299207,0.09076618740155547,-0.07440904669869502
1.136000156402588,car (1).jpg,0.08098242652206737,0.09278115246071249,0.08836324076214322,-0.0723889854418022,0.09153763550968594,0.09082839230637459,0.09145357059878953,0.09283676360091729,0.08983266679437957,0.09245778977367757,0.08902887571202227,0.0895362826629022,0.08951504850566966,0.09380363301082051,0.09074917772402498,-0.07386594401191998
1.136000156402588,car (1).jpg,0.0810701794707989,0.09279337886492954,0.0883732543436592,-0.07242213307882941,0.09151099223029521,0.09083675185880087,0.09145915853490336,0.09283689771138402,0.08984504966080781,0.0924762746663421,0.08904660064537533,0.08955251002937675,0.08952819133140938,0.09377310052789456,0.09076679089865576,-0.07453019315364279
1.136000156402588,car (1).jpg,0.08103171211859132,0.0927925965538736,0.08837714354719442,-0.07274708273972066,0.09152417975952384,0.09084012697221362,0.09146510409892847,0.09284476552543229,0.0898368018671038,0.092457074517855,0.08902820515968861,0.08953695321523586,0.08952175402900625,0.09380785749052256,0.09075161406417061,-0.07397097485911547
1.136000156402588,car (1).jpg,0.08103388023780349,0.09277992311476745,0.08835961977954146,-0.07223212089921485,0.09152476090487968,0.09082405606795026,0.09144720035161977,0.09282683942637913,0.08983499137580292,0.09246597051214821,0.08903439659290273,0.08954312229670552,0.08951612138940351,0.0937799848651868,0.09075541386072801,-0.0741463019426229
1.136000156402588,car (1).jpg,0.08109317941584342,0.09280068788536643,0.08838335733215301,-0.07271704199517273,0.09151034402970601,0.09084580431530527,0.09146847921234122,0.09284610663009961,0.08984746364920898,0.09247153609651758,0.08904025274995002,0.08955016309620895,0.08953290754948945,0.0937879867897018,0.0907650698143327,-0.07442328475991306
1.1370000839233398,car (1).jpg,0.08101063442356997,0.0927790961002226,0.08836143027084234,-0.07238429157546658,0.09153546739047377,0.09082586655925114,0.09145050840979915,0.09283200267934831,0.08983027515772285,0.09245474993643164,0.0890222595956635,0.08953393572973439,0.08951225453761275,0.0937983356473846,0.09074600377631233,-0.07387459413702419
1.1370000839233398,car (1).jpg,0.08110189659618099,0.09279161307711757,0.08837133209363604,-0.07240132360474152,0.09150880175933859,0.09083389083551059,0.09145587282846843,0.09283224854853732,0.08984498260557444,0.09247609585238646,0.08904221970346209,0.08955284530554358,0.08952774429652027,0.0937720276441607,0.09076596388411091,-0.074525834563474
1.1370000839233398,car (1).jpg,0.08104945940368884,0.09279545757716388,0.08837962459082897,-0.07273400696921431,0.09152683961711403,0.09084218333270351,0.0914671381076739,0.09284570429869941,0.08984037814621665,0.09246036022428993,0.08902740049688822,0.0895402836251597,0.08952526325288573,0.09380986914752354,0.09075436332873861,-0.07398800688839041
1.1370000839233398,car (1).jpg,0.08104930294147765,0.09278396878051386,0.08836232434062055,-0.0722262423904231,0.09152849364620372,0.09082667122205153,0.09145019548537678,0.09282925341478031,0.08983693597757053,0.0924674233755378,0.08903180379054591,0.08954441869788393,0.0895177754184932,0.0937819294669544,0.09075633028225068,-0.0741663067539104
1.1370000839233398,car (1).jpg,0.08110129309908069,0.09280151489991127,0.08838306675947509,-0.07270233454732114,0.09151005345702809,0.09084504435599379,0.09146769690128528,0.09284402791786527,0.08984898356783194,0.09247272073897371,0.08903783876154885,0.08955121362819835,0.08953380161926766,0.09378876910075773,0.0907652709800328,-0.07443897568452068
1.1370000839233398,car (1).jpg,0.08101789874051794,0.09278291824852446,0.08836393366622133,-0.07237729547945207,0.0915375013992192,0.09082814643718558,0.09145225184586667,0.09283390257762701,0.08983360556764669,0.09245799093937766,0.08902284074101934,0.08953722143616932,0.08951567435451441,0.09380164370556399,0.09074875304088033,-0.07388831810811974
1.1370000839233398,car (1).jpg,0.08111506177366516,0.09279523405971933,0.08837334375063702,-0.07238686202607894,0.09151092517506185,0.09083585778902266,0.09145817505814732,0.09283508722008314,0.08984683780036423,0.0924777275297317,0.08904224205520654,0.08955463344510001,0.0895297336017768,0.0937743298738396,0.09076692500912249,-0.07453251773506614
1.1370000839233398,car (1).jpg,0.08106660319168606,0.09279717866148694,0.0883799598669958,-0.07272508862317664,0.09152621376826928,0.09084238449840361,0.09146682518325153,0.09284653131324426,0.08983926055899388,0.09245939909927835,0.0890256570608207,0.08953976953503723,0.08952425742438525,0.0938088409672786,0.09075273165139337,-0.07398838686804615
1.6010000705718994,car (1).jpg,0.08106754196495318,0.09278401348400277,0.08836181025049808,-0.07222760584683488,0.09152643728571383,0.09082550893133985,0.09144876497373164,0.092828404048491,0.0898372489019929,0.09246791511391582,0.08903225082543502,0.08954517865719541,0.08951846832257132,0.09378255531579915,0.09075628557876177,-0.0741646527248207
1.6010000705718994,car (1).jpg,0.08111756516904416,0.09280303481853423,0.08838389377401994,-0.072698154771108,0.09151034402970601,0.09084607253623873,0.09146885919199696,0.09284679953417772,0.0898503023207548,0.0924743747680634,0.08903947043889408,0.08955257708461012,0.08953590268324646,0.09379069135078089,0.09076654502946675,-0.07444172494908868
1.6019999980926514,car (1).jpg,0.08102885109530104,0.09278443816714742,0.08836507360518855,-0.07238847135167972,0.09153848487597524,0.09082926402440834,0.09145495640694576,0.09283560131020561,0.08983539370720312,0.09245928734055607,0.08902371245905309,0.08953816020943645,0.0895181777498934,0.09380387888000952,0.09074998238682537,-0.07389725880590187
1.6019999980926514,car (1).jpg,0.08111971093651187,0.09279735747544259,0.088375355407638,-0.07241080074439057,0.09151307094252956,0.09083822707393492,0.09146139370934889,0.09283819411256243,0.08984907297480976,0.09247944861405476,0.08904268909009565,0.08955610866023406,0.08953266168030044,0.09377730265585216,0.09076860138995664,-0.07454300070321568
1.6019999980926514,car (1).jpg,0.08106604439807467,0.09279762569637605,0.08838042925362936,-0.0727522683444343,0.09152688432060294,0.09084361384434865,0.09146874743327468,0.09284829710105623,0.08984167454739506,0.09246094136964576,0.08902509826720932,0.08954082006702663,0.08952709609593107,0.09381154552835769,0.09075436332873861,-0.0740001662373741
1.6019999980926514,car (1).jpg,0.08106751961320872,0.09278522047820335,0.08836303959644312,-0.0722523492279469,0.09152847129445926,0.09082754294008528,0.09145106720341054,0.09283041570549198,0.08983883587584923,0.09246927857032759,0.08903019446494513,0.08954584920952907,0.08952036822085002,0.09378449991756677,0.09075713494505107,-0.07417766144009369
1.6019999980926514,car (1).jpg,0.08113128914013971,0.09280392888831245,0.08838425140193122,-0.07272001477718529,0.09151083576808403,0.09084692190252804,0.09147002148270864,0.09284742538302247,0.08985034702424372,0.09247421830585222,0.0890355141801255,0.08955195123576537,0.0895364838286023,0.09379095957171435,0.09076594153236646,-0.074453817242839
1.6019999980926514,car (1).jpg,0.08105073345312279,0.09278522047820335,0.08836552064007766,-0.07240235178498647,0.0915389542626088,0.0908294875418529,0.0914553363866015,0.09283526603403879,0.08983762888164865,0.0924608743144124,0.08902132082239637,0.08953941190712594,0.08951998824119428,0.09380566701956594,0.09075125643625932,-0.07390441136412756
1.6019999980926514,car (1).jpg,0.08114143683212242,0.09279919031848792,0.08837680827102759,-0.07240552573269912,0.09151544022744182,0.09083952347511333,0.091462086613427,0.09283906583059619,0.08985045878296599,0.09248036503557742,0.08903893399702716,0.08955630982593416,0.08953317577042291,0.09377743676631889,0.09076884725914565,-0.07455864692433439
1.6019999980926514,car (1).jpg,0.08109843207579041,0.09279979381558821,0.08838172565480777,-0.07275217893745647,0.09152786779735897,0.09084455261761577,0.09146914976467488,0.09284885589466761,0.08984451321894088,0.09246315419234684,0.08902257252008587,0.08954254115134969,0.08952906304944314,0.0938138924615255,0.09075565972991702,-0.07400971043225651
1.6019999980926514,car (1).jpg,0.08110527170959374,0.09278924379220531,0.08836592297147786,-0.07225601491403758,0.0915311535037939,0.09083020279767547,0.09145321297087824,0.09283258382470415,0.08984308270729574,0.09247269838722925,0.08902943450563365,0.08954922432294182,0.08952394449996287,0.09378901496994674,0.09076024183753036,-0.07418240000991821
1.6019999980926514,car (1).jpg,0.0811640567975112,0.09280882392034816,0.08838845352988882,-0.07273601862621529,0.09151532846871954,0.090851191085719,0.09147426831415514,0.0928515157522578,0.08985553262895735,0.09247886746869892,0.0890361623807147,0.08955653334337871,0.08954099888098227,0.09379567578979442,0.0907703224742797,-0.07447797947859519
1.6030001640319824,car (1).jpg,0.08108043892150389,0.09278969082709441,0.08836927573314615,-0.07242193191312932,0.09154291052137739,0.0908339355389995,0.0914586891482698,0.09284033988003014,0.08983966289039408,0.09246288597141337,0.0890195103310955,0.08954122239842682,0.08952139640109497,0.09380839393238949,0.09075279870662674,-0.07392146574514696
1.6030001640319824,car (1).jpg,0.0811727069226154,0.09280131373421117,0.08837803761697263,-0.07241053252345711,0.09151693779432032,0.09084090928326956,0.09146349477332769,0.09283987049339658,0.08985399035858993,0.09248436599783492,0.08903915751447171,0.08955993080853591,0.0895369308634914,0.09378125891462075,0.09077278116616978,-0.0745875477299151
1.6030001640319824,car (1).jpg,0.08113225026515129,0.09280468884762393,0.08838603954148765,-0.0727524695101344,0.09153338867823943,0.09084882180080674,0.09147395538973277,0.09285332624355867,0.08984706131780879,0.09246632814005949,0.08902183491251885,0.08954522336068432,0.08953170055528886,0.0938159935255043,0.0907585207532073,-0.07403259861857875
1.6030001640319824,car (1).jpg,0.08113803936696522,0.09279054019338372,0.08836659352381152,-0.07224175450107509,0.0915339027683619,0.0908307839430313,0.09145421879937873,0.092833410839249,0.08984390972184059,0.09247426300934113,0.08902726638642149,0.08955047602063132,0.08952506208718564,0.09378912672866901,0.09076149353521985,-0.0742122172370216
1.6030001640319824,car (1).jpg,0.08119329287925874,0.09281085792909359,0.08839050989037871,-0.07272146764057488,0.09151852476817665,0.09085315803923107,0.09147589999150038,0.09285339329879204,0.08985852776271436,0.09248222023036722,0.08903614002897024,0.08955995316028037,0.08954399401473928,0.09379757568807312,0.09077356347722572,-0.07450109118236198
1.6030001640319824,car (1).jpg,0.08110802097416174,0.09279353532714073,0.088372852012259,-0.07241945086949478,0.0915480067191132,0.09083751181811235,0.09146302538669412,0.09284387145565408,0.08984453557068534,0.09246755748600453,0.0890208067322739,0.08954596096825135,0.08952669376453087,0.09381335601965857,0.09075755962819572,-0.07392061637885766
1.6040000915527344,car (1).jpg,0.08119729384151624,0.09280542645519095,0.08838181506178559,-0.0724235412387301,0.09152308452404553,0.09084537963216062,0.09146832275013003,0.09284525726381031,0.08985644905048001,0.09248608708215798,0.08903788346503776,0.089562389500426,0.08953909898270357,0.09378501400768924,0.09077470341619294,-0.07457440490417538
1.6040000915527344,car (1).jpg,0.08115853591663073,0.09280578408310224,0.08838686655603249,-0.07278523716750589,0.09153517681779585,0.09085047582989643,0.09147536354963345,0.09285435442380362,0.0898505034864549,0.09246876448020512,0.08902154433984093,0.0895484867153748,0.08953462863381251,0.09382086620579555,0.09076129236951976,-0.07401961225505022
1.6040000915527344,car (1).jpg,0.08115972055908686,0.09279541287367497,0.0883716003145695,-0.07226332393447446,0.09153969187017583,0.0908366401000786,0.0914599855494482,0.09283788118814006,0.08984916238178758,0.0924781298611319,0.08902807104922188,0.08955472285207783,0.08952897364246531,0.09379616752817244,0.09076562860794408,-0.07418814440824323
1.6040000915527344,car (1).jpg,0.0812070168503543,0.09281452361518426,0.08839377324506918,-0.07272832962612266,0.09152205634380059,0.0908574942776554,0.09148162203808094,0.09285699192964934,0.08986154524821582,0.09248391896294582,0.08903415072371372,0.08956149543064779,0.08954569274731788,0.09380211309219755,0.09077546337550442,-0.07449302220261361
1.6040000915527344,car (1).jpg,0.0811190403841782,0.0927944517486634,0.08837334375063702,-0.07241878031716112,0.09154838669876894,0.09083889762626858,0.09146528291288411,0.09284284327540913,0.08984390972184059,0.09246603756738157,0.08901488351999325,0.08954403871822819,0.08952470445927435,0.09381322190919184,0.09075615146829503,-0.07392437147192615
1.6040000915527344,car (1).jpg,0.0811977632281498,0.09280471119936838,0.08838092099200738,-0.07241225360778017,0.0915225033786897,0.09084542433564953,0.09146906035769706,0.0928439608626319,0.08985861716969218,0.09248832225660351,0.08903502244174748,0.08956326121845976,0.08953999305248178,0.09378762916179051,0.09077655861098273,-0.07457925523272219
1.6040000915527344,car (1).jpg,0.08114322497167885,0.09280813101627004,0.0883894146549004,-0.07277336839120012,0.09153806019283059,0.09085382859156473,0.09148070561655827,0.09285759542674964,0.08985148696321094,0.09246963619823888,0.08901754337758343,0.08954844201188589,0.08953487450300152,0.09382151440638475,0.09076243230848698,-0.07402423906615246
1.6040000915527344,car (1).jpg,0.08112610353542608,0.09279543522541943,0.08837184618375851,-0.07225876417860558,0.09154074240216523,0.09083740005939007,0.09146356182856105,0.09283884231315163,0.0898517551841444,0.0924804767942997,0.08902574646779852,0.08955642158465643,0.08953069472678837,0.09379797801947332,0.09076828846553427,-0.07418443401866365
1.6040000915527344,car (1).jpg,0.08116749896615731,0.09281707171405217,0.08839582960555907,-0.07273807498670518,0.09152534205023552,0.09085934947244519,0.09148497479974924,0.09285683546743816,0.08986340044300561,0.09248570710250224,0.08903162497659027,0.08956272477659283,0.08954634094790709,0.09380226955440873,0.0907776761982055,-0.07448504262984307
1.6040000915527344,car (1).jpg,0.08107402397084522,0.09279648575740883,0.08837506483496008,-0.07243290661965687,0.0915515606464816,0.09084061871059164,0.09146852391583013,0.09284489963589902,0.08984661428291968,0.09246889859067185,0.0890136541740482,0.08954634094790709,0.08952604556394167,0.09381577000805974,0.0907589677880964,-0.07390885936127417
1.6040000915527344,car (1).jpg,0.08114814235545902,0.09280654404241372,0.08838253031760816,-0.07241900383460567,0.09152453738743513,0.09084694425427249,0.09147129553214259,0.09284362558646507,0.0898597571086594,0.09248964100952638,0.08903285432253531,0.08956442350917143,0.0895396801280594,0.093788634990291,0.09077783266041668,-0.07456926400295066
1.6050000190734863,car (1).jpg,0.08108770323845187,0.09281119320526042,0.08839274506482424,-0.07278452191168332,0.09154168117543235,0.09085682372532174,0.09148352193635964,0.09285882477269468,0.08985584555337972,0.09247395008491875,0.08901877272352847,0.08955253238112121,0.08953791434024744,0.0938267894180762,0.09076692500912249,-0.07402859765632125
1.6050000190734863,car (1).jpg,0.0810737333981673,0.09279780451033169,0.08837484131751552,-0.07226204988504051,0.09154373753592224,0.09084010462046917,0.09146570759602876,0.0928401610660745,0.089853208047534,0.09248163908501138,0.08902449477010903,0.08955742741315692,0.08953118646516639,0.09380081669101914,0.09076985308764614,-0.07418441166691919
1.6050000190734863,car (1).jpg,0.08112398011970283,0.09281807754255265,0.08839748363464876,-0.07274442288213048,0.09152634787873601,0.0908604447079235,0.09148533242766052,0.09285726015058281,0.08986543445175105,0.09248720466938075,0.08903126734867899,0.08956415528823797,0.08954748088687431,0.09380557761258812,0.09077941963427301,-0.07449092113863481
1.6050000190734863,car (1).jpg,0.08102753234237818,0.09279901150453228,0.08837846230011728,-0.07244949161404271,0.09155379582092713,0.09084325621643737,0.09147075909027566,0.09284686658941109,0.08985157637018876,0.09247294425641826,0.08901667165954967,0.08955052072412023,0.08953100765121075,0.09382263199360752,0.09076395222710994,-0.0739110945357197
1.6050000190734863,car (1).jpg,0.08109992964266892,0.09281092498432696,0.08838793943976635,-0.07243518649759131,0.09152974534389322,0.09085221926596394,0.09147670465430077,0.09284923587432335,0.08986304281509433,0.09249171972176072,0.08903455305511392,0.08956654692489469,0.08954314464844998,0.09379364178104899,0.09078093955289597,-0.07456776643607216
1.6050000190734863,car (1).jpg,0.08104065281637345,0.09281253430992774,0.08839442144565839,-0.07281020406606246,0.09154237407951046,0.09085896949278945,0.09148531007591607,0.09286009882212863,0.08985727606502486,0.09247455358201905,0.0890195550345844,0.0895528900090325,0.08953954601759267,0.0938292928134552,0.09076799789285635,-0.07403063166506668
1.6050000190734863,car (1).jpg,0.08102849346738976,0.09279916796674346,0.08837629418090512,-0.07228187588237237,0.09154512334407847,0.0908421386292146,0.0914671381076739,0.09284241859226448,0.08985483972487923,0.09248300254142315,0.08902684170327683,0.08955847794514632,0.08953310871518955,0.09380381182477615,0.09077148476499138,-0.07418280234131841
1.6050000190734863,car (1).jpg,0.08108421636631684,0.09281957510943116,0.08839940588467192,-0.07275761041135913,0.09152733135549204,0.09086314926900259,0.09148729938117259,0.0928614622785404,0.08986664144595163,0.092489082215915,0.08903504479349193,0.0895657869655832,0.08954958195085311,0.09380841628413394,0.09078185597441864,-0.07449648672300418
1.6050000190734863,car (1).jpg,0.08100155961532111,0.09280155960340018,0.08838022808792927,-0.07245988517521443,0.09155444402151633,0.09084482083854924,0.0914721896019208,0.09284869943245642,0.08985157637018876,0.092473078366885,0.08901964444156223,0.08955063248284251,0.08953120881691085,0.09382334724943009,0.09076468983467696,-0.07391055809385277
1.6060001850128174,car (1).jpg,0.08106977713939871,0.09281190846108299,0.08838914643396693,-0.07243118553533381,0.0915305053032047,0.09085291217004206,0.0914770399304676,0.09284934763304563,0.08986427216103937,0.09249346315782823,0.08903947043889408,0.08956833506445111,0.08954477632579522,0.09379482642350512,0.09078313002385259,-0.07456615711047138
1.6060001850128174,car (1).jpg,0.08100459945256704,0.09281329426923922,0.08839600841951471,-0.07281302038586383,0.09154288816963294,0.09086057881839023,0.09148645001488329,0.09286342923205247,0.08985843835573654,0.09247660994250893,0.0890246065288313,0.08955490166603347,0.08954106593621564,0.09383150563615628,0.09077038952951307,-0.07402897763597699
1.6060001850128174,car (1).jpg,0.08098206889415609,0.09279901150453228,0.08837763528557244,-0.07227253285319005,0.0915467550214237,0.09084397147225994,0.09146892624723033,0.09284492198764348,0.08985483972487923,0.09248329311410107,0.08903037327890077,0.08955901438701325,0.0895337792675232,0.09380530939165466,0.09077271411093642,-0.07417079945454591
1.6060001850128174,car (1).jpg,0.0810271747144669,0.09281682584486316,0.08839909296024955,-0.07275202247524529,0.09152701843106967,0.0908629928067914,0.09148837226490644,0.09286094818841793,0.08986789314364113,0.09249026685837113,0.08903922456970507,0.08956728453246171,0.08955092305552043,0.09381042794113492,0.0907836217622306,-0.07449581617067053
1.6060001850128174,car (1).jpg,0.080934347919744,0.09279860917313208,0.08838127861991867,-0.07245899110543622,0.09155565101571692,0.09084685484729467,0.09147404479671059,0.09285073344120186,0.08985222457077796,0.09247359245700747,0.08902295249974161,0.08955161595959854,0.08953216994192242,0.09382547066515334,0.090765919180622,-0.07389151440757685
1.6060001850128174,car (1).jpg,0.08101119321718135,0.09280927095523726,0.08838910173047802,-0.07242582111666454,0.09153034884099351,0.09085326979795334,0.09147741991012334,0.09285124753132433,0.08986599324536243,0.09249426782062863,0.08904349375289604,0.08956989968656298,0.08954631859616263,0.09379665926655045,0.09078505227387575,-0.07454791808699585
1.6060001850128174,car (1).jpg,0.08096796494340479,0.09281461302216208,0.08839953999513865,-0.07280971232768445,0.09154512334407847,0.09086310456551368,0.09149016040446287,0.09286561970300909,0.08986281929764978,0.09247929215184357,0.0890307085550676,0.08955825442770177,0.08954529041591769,0.09383483604608012,0.09077454695398175,-0.07403043049936658
1.6070001125335693,car (1).jpg,0.08095694553338832,0.09280151489991127,0.08838123391642976,-0.07228303817308404,0.09154894549238032,0.09084627370193883,0.0914717425670317,0.09284695599638891,0.08985839365224763,0.09248557299203551,0.08903533536616985,0.08956180835507016,0.08953695321523586,0.09380776808354474,0.09077568689294897,-0.07417093356501264
1.6070001125335693,car (1).jpg,0.08101058972008106,0.09282073740014284,0.08840340684692942,-0.07275249186187885,0.0915309523380938,0.0908667926033488,0.09149138975040791,0.09286503855765325,0.08987247525125447,0.09249404430318407,0.0890454160029192,0.08957130784646367,0.08955508047998911,0.0938138924615255,0.09078800270414385,-0.07449963831897238
1.6070001125335693,car (1).jpg,0.0809212497974932,0.09280238661794503,0.08838519017519834,-0.07246578603575063,0.09155891437040739,0.09085036407117415,0.09147643643336731,0.09285399679589233,0.08985548792546844,0.092475827631453,0.08902778047654396,0.08955411935497753,0.08953534388963508,0.0938277952465767,0.09076898136961238,-0.07390215383793758
1.6080000400543213,car (1).jpg,0.08099997264146479,0.09281286958609457,0.08839252154737968,-0.07243912040461545,0.09153379100963963,0.09085657785613273,0.0914807950235361,0.09285401914763679,0.08986831782678578,0.09249612301541842,0.08904733825294235,0.08957137490169703,0.0895489337502639,0.09379909560669608,0.09078733215181019,-0.07455209786320899
1.6080000400543213,car (1).jpg,0.08096161704797948,0.09281501535356228,0.08839898120152727,-0.07282343629878,0.09154451984697817,0.09086297045504695,0.09148893105851783,0.09286508326114216,0.089861455841238,0.09247781693670952,0.08903095442425661,0.08955637688116752,0.08954390460776146,0.0938328467408236,0.09077302703535879,-0.0740425227931169
1.6080000400543213,car (1).jpg,0.08095122348680776,0.09280088905106652,0.08837960223908452,-0.07227758434743695,0.09154849845749122,0.09084513376297161,0.09147006618619755,0.09284588311265506,0.08985787956212515,0.0924850812536575,0.08903667647083717,0.0895607354713363,0.08953632736639111,0.09380792454575593,0.09077515045108205,-0.07417401810574747
1.6080000400543213,car (1).jpg,0.08101092499624789,0.09282178793213224,0.08840365271611843,-0.07273749384134934,0.09153153348344964,0.09086701612079336,0.09149065214284088,0.09286588792394256,0.08987267641695457,0.09249442428283981,0.0890475617703869,0.08957119608774139,0.08955528164568921,0.09381422773769232,0.09078818151809949,-0.0745036839847188
1.6080000400543213,car (1).jpg,0.08092272501262725,0.09280357126040116,0.08838599483799874,-0.07245923697462522,0.09155945081227432,0.09085096756827445,0.09147672700604523,0.09285518143834846,0.08985548792546844,0.09247694521867576,0.08903001565098949,0.08955461109335555,0.08953554505533518,0.09382880107507718,0.09076889196263456,-0.07390693711125101
1.6080000400543213,car (1).jpg,0.08100372773453328,0.09281456831867317,0.08839379559681364,-0.0724298444306665,0.09153564620442942,0.09085762838812213,0.09148061620958045,0.09285549436277084,0.089869457765753,0.09249871581777523,0.08905084747682183,0.08957372183486484,0.08955031955842013,0.09380195662998636,0.09078831562856622,-0.07455580825278857
1.6080000400543213,car (1).jpg,0.08095806312061109,0.09281711641754108,0.08840088109980597,-0.07282222930457942,0.09154686678014598,0.09086504916728129,0.0914900933492295,0.09286738549082106,0.08986089704762662,0.09247888982044337,0.08903310019172432,0.0895573380061791,0.08954379284903918,0.09383342788617943,0.09077271411093642,-0.0740483789501642
1.6080000400543213,car (1).jpg,0.08095258694321954,0.09280223015573384,0.08838074217805174,-0.07228024420502713,0.09154914665808042,0.09084618429496101,0.09147006618619755,0.09284729127255574,0.08985993592261504,0.09248756229729203,0.08904112446798378,0.08956330592194867,0.08953871900304783,0.09381045029287938,0.09077729621854976,-0.07416948070162305
1.6080000400543213,car (1).jpg,0.08101624471142825,0.0928252077490339,0.08840584318707505,-0.07273928198090576,0.09153426039627319,0.09086896072256097,0.09149328964868661,0.0928675643047767,0.08987361519022169,0.09249536305610694,0.08905093688379966,0.08957247013717534,0.08955633217767861,0.0938147865313037,0.09078905323613325,-0.07451450222903516
1.6080000400543213,car (1).jpg,0.08093182217262056,0.09280652169066926,0.08838780532929962,-0.07246301441943817,0.09156173069020876,0.09085201810026385,0.09147833633164601,0.09285609785987113,0.08985868422492554,0.09247893452393229,0.08903504479349193,0.08955718154396791,0.0895377802297807,0.09383032099370014,0.09077175298592484,-0.07391172038456445
1.6089999675750732,car (1).jpg,0.08101253432184867,0.09281702701056325,0.08839547197764779,-0.07242211072708496,0.09153734493700802,0.0908581424782446,0.09148247140437024,0.09285415325810352,0.08987106709135378,0.0924989840387087,0.08905437905244577,0.08957437003545404,0.0895514371456429,0.09380173311254181,0.0907901261198671,-0.07455478007254362
1.6089999675750732,car (1).jpg,0.08097786676619849,0.0928208044553762,0.08840392093705189,-0.07280734304277219,0.09154997367262527,0.09086746315568246,0.09149416136672037,0.09287122999086737,0.0898660603005958,0.0924829801896787,0.0890401633429722,0.08956183070681462,0.08954900080549727,0.09383771942111485,0.0907783243987947,-0.0740519775810215
2.0830001831054688,car (1).jpg,0.08096394162940283,0.09280748281568084,0.08838550309962072,-0.07228272524866167,0.09155482400117207,0.09085067699559653,0.0914761905641783,0.09285232041505818,0.08986188052438265,0.0924895292508041,0.0890444101744187,0.08956542933767192,0.0895402836251597,0.09381208197022461,0.09077953139299529,-0.0741752027482036
2.0830001831054688,car (1).jpg,0.08101928454867417,0.09282527480426726,0.08840599964928623,-0.0727438640885191,0.09153484154162903,0.09086996655106146,0.09149340140740889,0.09286857013327719,0.08987336932103268,0.09249636888460742,0.08905185330532232,0.08957300657904227,0.08955590749453396,0.09381487593828153,0.09078916499485552,-0.07451456928426853
2.0830001831054688,car (1).jpg,0.08093211274529848,0.09280634287671362,0.08838738064615496,-0.07246554016656162,0.0915612613035752,0.09085286746655315,0.09147880571827957,0.09285768483372746,0.08985772309991397,0.09247944861405476,0.08903520125570312,0.08955715919222346,0.08953802609896971,0.09383123741522281,0.09077161887545811,-0.07392028110269083
2.0840001106262207,car (1).jpg,0.08101628941491716,0.09281767521115246,0.08839558373637006,-0.07241880266890557,0.09153743434398584,0.09086015413524558,0.09148327606717063,0.09285817657210547,0.08987169294019853,0.09250115215792086,0.08905569780536864,0.08957602406454374,0.08955230886367666,0.09380370006605387,0.09079095313441195,-0.07457020277621779
2.0840001106262207,car (1).jpg,0.08097688328944246,0.09282353136819975,0.08840599964928623,-0.07282099995863438,0.09155113596333694,0.090869944199317,0.09149543541615432,0.09287165467401202,0.08986657439071827,0.09248396366643473,0.0890410127092615,0.08956276948008174,0.08954929137817519,0.09383885936008207,0.0907785255644948,-0.07405541974966762
2.0840001106262207,car (1).jpg,0.08095893483864484,0.09280728164998074,0.08838525723043171,-0.07229399052786714,0.09155274528893773,0.09085069934734098,0.0914747377007887,0.0928528121534362,0.08986261813194968,0.09249035626534895,0.08904579598257494,0.08956632340745013,0.08954099888098227,0.09381485358653707,0.09078026900056231,-0.07416693260275514
2.0840001106262207,car (1).jpg,0.08101510477246103,0.09282820288279091,0.08840807836152058,-0.07276775810334184,0.09153524387302922,0.09087173233887343,0.09149545776789877,0.09287060414202263,0.08987585036466722,0.09249811232067494,0.08905462492163478,0.08957486177383206,0.08955874616607978,0.09381760285110508,0.09079164603849006,-0.0745215877320275
2.0850000381469727,car (1).jpg,0.08092757534117405,0.09280906978953717,0.08838912408222248,-0.0724947538965647,0.09156269181522034,0.09085472266134294,0.0914810408927251,0.09285989765642853,0.08985908655632574,0.0924800744628995,0.08903669882258163,0.0895577403375793,0.08953952366584822,0.09383320436873488,0.0907726694074475,-0.07391652600962234
2.0850000381469727,car (1).jpg,0.08100623112991227,0.09281894926058641,0.08839582960555907,-0.07242933034054402,0.0915381048963195,0.09086028824571231,0.09148341017763736,0.09285869066222795,0.08987343637626605,0.09250215798642135,0.08905808944202535,0.08957723105874432,0.08955400759625526,0.09380582348177713,0.09079294243966847,-0.07457436020068647
2.0850000381469727,car (1).jpg,0.08096568506547035,0.09282594535660092,0.0884075642713981,-0.07283148292678392,0.09155296880638228,0.09087175469061788,0.0914970447417551,0.09287404631066874,0.08986952482098637,0.09248648941355818,0.08904474545058554,0.08956511641324955,0.0895524876776323,0.09384239093570601,0.09078169951220745,-0.07405284929905526
2.0850000381469727,car (1).jpg,0.08094927888504015,0.09281085792909359,0.0883877606258107,-0.07229765621395781,0.09155730504480661,0.0908535380188868,0.0914776881310568,0.09285506967962619,0.0898654568034955,0.09249303847468358,0.08904993105529917,0.08956882680282913,0.0895444857531173,0.09381771460982735,0.09078339824478605,-0.07415788014625074
2.0859999656677246,car (1).jpg,0.08101465773757192,0.09283117566480346,0.0884107158673663,-0.0727736813156225,0.09153844017248633,0.09087439219646361,0.09149822938421123,0.09287384514496864,0.08987728087631236,0.092499833404998,0.08905817884900318,0.08957656050641066,0.08956060136086957,0.09381921217670586,0.0907936800472355,-0.07451814556338138
2.0859999656677246,car (1).jpg,0.08093065988190888,0.09281114850177151,0.0883915157188792,-0.07250411927749148,0.0915659104664219,0.09085713664974411,0.09148307490147053,0.09286349628728584,0.08986223815229394,0.09248349427980117,0.08904217499997318,0.08956142837541442,0.08954332346240562,0.09383738414494802,0.090776424500516,-0.07390253381759332
2.0859999656677246,car (1).jpg,0.0810084663043578,0.09282189969085451,0.08839962940211647,-0.0724428978494284,0.09154235172776601,0.09086399863529189,0.09148709821547249,0.09286327276984128,0.08987629739955633,0.09250562250681192,0.08906318563976116,0.08958096380006836,0.08955765093060147,0.09380915389170097,0.09079631755308122,-0.074560345656913
2.0859999656677246,car (1).jpg,0.08097489398418593,0.0928279570136019,0.08841033588771056,-0.07285075013050439,0.09155484635291652,0.09087428043774133,0.09149943637841182,0.09287692968570348,0.08987129060879834,0.09248903751242608,0.08904858995063185,0.0895680891952621,0.08955537105266703,0.09384453670317372,0.09078420290758644,-0.07405584443281227
2.0870001316070557,car (1).jpg,0.08096134882704602,0.09281295899307239,0.08839057694561207,-0.0723073121675625,0.09156012136460798,0.09085554967588778,0.09147987860201343,0.09285781894419419,0.08986771432968549,0.09249567598052931,0.08905399907279003,0.08957200075054178,0.08954777145955223,0.09382001683950625,0.09078610280586515,-0.07415937771312925
2.0870001316070557,car (1).jpg,0.081030125144735,0.0928338578741381,0.0884134204284454,-0.07278197381281541,0.09154134589926552,0.09087667207439805,0.09150046455865676,0.09287659440953665,0.08988222061183698,0.09250432610563351,0.08906466085489521,0.0895815896489131,0.08956630105570568,0.09382325784245227,0.0907987762449713,-0.07452536517684044
2.0870001316070557,car (1).jpg,0.0809478036699061,0.09281747404545236,0.08839757304162658,-0.07251636803345299,0.09157100666415771,0.09086209873701319,0.09148872989281773,0.0928694194995665,0.08986749081224094,0.09248785286996995,0.08904899228203204,0.08956641281442795,0.08954909021247509,0.0938423462322171,0.09078169951220745,-0.07390342788737153
2.0880000591278076,car (1).jpg,0.08102918637146787,0.09282681707463468,0.08840401034402971,-0.07245512425364545,0.09154612917257895,0.09086744080393801,0.09149100977075217,0.09286749724954334,0.08987973956820244,0.09250843882661329,0.08906859476191935,0.08958395893382537,0.08956151778239224,0.09381232783941362,0.0907998267769607,-0.07456553126162663
2.0880000591278076,car (1).jpg,0.08099333417336156,0.09283233795551514,0.08841433684996806,-0.07287381713078227,0.0915585567424961,0.09087781201336527,0.09150377261683615,0.09288173531076137,0.0898755597919893,0.09249234557060547,0.08905437905244577,0.08957117373599693,0.08955975199458027,0.09384815768577548,0.09078815916635503,-0.07406091827880362
2.0880000591278076,car (1).jpg,0.08098048192029976,0.09281597647857386,0.0883934156171579,-0.07231323537984316,0.09156240124254242,0.09085836599568915,0.09148327606717063,0.09286097054016239,0.08987041889076458,0.09249806761718603,0.08905864823563674,0.08957390064882048,0.08955076659330924,0.09382310138024108,0.09078874031171087,-0.07415868480905113
2.0880000591278076,car (1).jpg,0.0810480288920437,0.09283750120848432,0.08841684024534706,-0.07277508947552318,0.09154425162604471,0.09088000248432189,0.09150321382322477,0.09288034950260514,0.08988483576593825,0.09250738829462389,0.0890694217764642,0.08958398128556982,0.0895686926923624,0.09382605181050918,0.09080125728860584,-0.07454177135727064
2.0880000591278076,car (1).jpg,0.08096152764100166,0.09281957510943116,0.08839875768408272,-0.07250894725429383,0.0915722136583583,0.09086355160040278,0.0914894451486403,0.09286955361003323,0.08986874250993043,0.09248957395429301,0.08905252385765598,0.08956737393943953,0.08955007368923112,0.09384335206071759,0.0907827723959413,-0.0739140449659878
2.0889999866485596,car (1).jpg,0.08103808236576109,0.0928288063798912,0.08840532909695258,-0.07243511944235795,0.09154829729179112,0.09086860309464968,0.0914919932475082,0.09286807839489918,0.08988190768741461,0.09251051753884763,0.08907310981429932,0.08958563531465952,0.08956330592194867,0.0938138924615255,0.09080170432349495,-0.07457064981110689
2.0889999866485596,car (1).jpg,0.08100491237698941,0.09283459548170513,0.08841605793429112,-0.07285410289217269,0.09156114954485292,0.09087928722849932,0.09150502431452565,0.09288350109857334,0.08987775026294592,0.0924947819107511,0.08905918467750366,0.0895735430209092,0.08956207657600362,0.09385088459859903,0.09079055080301175,-0.07407070834287505
2.0889999866485596,car (1).jpg,0.08099071901926029,0.09281966451640898,0.08839658956487055,-0.07230988261817486,0.0915665139635222,0.09086131642595725,0.09148624884918319,0.09286555264777573,0.08987263171346566,0.09250034749512047,0.08906280566010542,0.08957624758198829,0.08955280060205467,0.09382607416225364,0.0907909754861564,-0.07416402687597595
2.0889999866485596,car (1).jpg,0.08105330390373515,0.09283808235384015,0.08841686259709151,-0.07277900103080286,0.09154447514348926,0.09088002483606634,0.09150415259649189,0.09288059537179415,0.08988530515257181,0.09250839412312438,0.08907161224742081,0.08958496476232586,0.08956994439005189,0.09382766113610996,0.09080219606187297,-0.07454785103176248
2.0900001525878906,car (1).jpg,0.0809764586062978,0.0928222573187658,0.08840043406491686,-0.07251954198116564,0.09157386768744799,0.09086551855391485,0.09149190384053038,0.09287344281356845,0.08987131296054279,0.09249256908805002,0.08905634600595784,0.08957030201796318,0.08955320293345487,0.09384753183693073,0.09078549930876485,-0.07392363386435913
2.0900001525878906,car (1).jpg,0.08104820770599934,0.09283128742352574,0.08840745251267583,-0.07243523120108022,0.09154988426564745,0.09087148646968442,0.09149442958765383,0.09287221346762341,0.08988277940544837,0.09251237273363742,0.08907545674746713,0.08958746815770485,0.08956484819231608,0.0938168875952825,0.09080306777990672,-0.07458446318918027
2.0900001525878906,car (1).jpg,0.08101861399634051,0.09283647302823937,0.08841708611453607,-0.0728596461247976,0.09156059075124154,0.09088053892618882,0.09150571721860376,0.09288604919744124,0.08987797378039047,0.09249540775959585,0.08906097281706009,0.08957430298022068,0.08956245655565936,0.09385182337186615,0.09079066256173403,-0.07406941194169664
2.0900001525878906,car (1).jpg,0.0810017160775323,0.09282098326933184,0.08839714835848193,-0.07230612752510637,0.09156595516991081,0.09086203168177982,0.09148653942186111,0.09286682669720968,0.08987504570186683,0.09250242620735481,0.08906758893341886,0.0895787956808562,0.0895556839770894,0.09382956103438866,0.09079350123327985,-0.0741532533351485
2.0910000801086426,car (1).jpg,0.08106421155502934,0.09284197155737538,0.08842104237330466,-0.07277028385046529,0.09154717970456835,0.09088328819075682,0.09150795239304929,0.09288450692707383,0.0898900660741408,0.09251223862317069,0.0890793235992579,0.08958947981470583,0.08957472766336533,0.09383177385708974,0.09080711344565313,-0.07454530293289457
2.0910000801086426,car (1).jpg,0.08097786676619849,0.09282538656298954,0.0884048150068301,-0.0725181114695205,0.09157777924272767,0.09086925129523889,0.09149612832023243,0.09287748847931486,0.08987493394314455,0.09249525129738466,0.08906269390138315,0.08957356537265365,0.08955702508175672,0.09385072813638784,0.09078929910532225,-0.07392443852715952
2.0910000801086426,car (1).jpg,0.08105536026422504,0.09283403668809374,0.08841020177724383,-0.07243918745984881,0.0915539075796494,0.09087405692029678,0.09149796116327777,0.09287480626998022,0.08988662390549468,0.09251601606798364,0.08908198345684808,0.08959142441647344,0.08956936324469605,0.09382053092962872,0.09080715814914204,-0.0745828985670684
2.0910000801086426,car (1).jpg,0.08102469367083236,0.09283978108641876,0.08842041652445991,-0.07286170248528749,0.09156447995477676,0.09088458459193523,0.09150987464307245,0.0928900725114432,0.08988159476299223,0.09249940872185335,0.08906727600899648,0.08957803572154471,0.08956681514582815,0.09385564552016801,0.09079435059956915,-0.07408514756979317
2.0910000801086426,car (1).jpg,0.08100864511831345,0.0928245595484447,0.08840041171317241,-0.0723182645223456,0.09156944204204584,0.09086612205101514,0.09149031686667405,0.09287120763912292,0.08987716911759008,0.09250577896902311,0.0890719698753321,0.08958150024193529,0.08955823207595731,0.09383228794721221,0.09079553524202529,-0.0741705535853569
2.0920000076293945,car (1).jpg,0.08107487333713452,0.09284579370567723,0.08842367987915038,-0.0727855277401838,0.09155046541100328,0.09088724444952541,0.09151063460238393,0.09288875375852033,0.08989185421369722,0.0925152337569277,0.08908325750628203,0.08959187145136255,0.08957698518955531,0.0938339419763019,0.09080890158520956,-0.0745620443894916
2.0920000076293945,car (1).jpg,0.08098535460059102,0.0928275546822017,0.08840617846324188,-0.07254260898144352,0.09157934386483954,0.09087106178653977,0.09149713414873292,0.09287896369444891,0.08987649856525642,0.09249730765787455,0.08906638193921827,0.089575644084888,0.08955908144224661,0.09385247157245535,0.09079095313441195,-0.07392515378298209
2.0920000076293945,car (1).jpg,0.08105916006078244,0.09283671889742838,0.08841221343424481,-0.07244790464018638,0.09155578512618365,0.09087577800461984,0.09149943637841182,0.09287639324383655,0.08988948492878496,0.09251820653894026,0.08908687848888379,0.0895939948670858,0.08957191134356396,0.09382307902849663,0.0908097285997544,-0.07457541073267587
2.0920000076293945,car (1).jpg,0.08102614653422195,0.09284467611845447,0.08842464100416196,-0.07287551586336087,0.09156789977167842,0.09088829498151481,0.09151423323324123,0.09289233003763318,0.08988762973399517,0.09250461667831143,0.08907530028525594,0.08958371306463636,0.08957251484066425,0.09386074171790382,0.09080038557057209,-0.07410383362815781
2.0920000076293945,car (1).jpg,0.08101425540617173,0.09283008042932515,0.08840530674520812,-0.07231017319085278,0.09157489586769293,0.09087112884177313,0.09149568128534333,0.09287679557523675,0.0898831146816152,0.09251094222199228,0.08908021766903611,0.08958722228851584,0.08956464702661598,0.0938389934705488,0.09080152550953931,-0.0741871609314872
2.0920000076293945,car (1).jpg,0.08107885194764756,0.0928513145865577,0.08842870902165283,-0.07276246073990593,0.09155582982967256,0.0908924524059835,0.09151552963441964,0.0928943193428897,0.08989674924573293,0.0925198382162855,0.08909034300927436,0.08959699000084281,0.08958205903554667,0.0938391946362489,0.09081377426550082,-0.07458336795370196
2.0930001735687256,car (1).jpg,0.08099378120825067,0.09283182386539267,0.08840973239061027,-0.07252626985624669,0.09158224959161873,0.09087490628658608,0.09150041985516785,0.09288209293867265,0.08987842081527958,0.09249920755615325,0.08907022643926459,0.08957761103840006,0.08956145072715888,0.09385501967132326,0.09079276362571283,-0.07393487679182015
2.0930001735687256,car (1).jpg,0.08106977713939871,0.09283879760966272,0.08841395687031232,-0.0724485975442645,0.09155714858259542,0.09087799082732091,0.09150097864877924,0.09288012598516059,0.0898911613096191,0.09252010643721896,0.08909043241625218,0.08959623004153133,0.08957441473894295,0.09382607416225364,0.09081149438756637,-0.07458005989552258
2.0930001735687256,car (1).jpg,0.0810379259035499,0.09284644190626644,0.08842687617860749,-0.0728813049651748,0.09156919617285683,0.09089001606583787,0.09151564139314192,0.09289639805512405,0.08988959668750723,0.0925061365969344,0.08907923419228007,0.08958635057048209,0.08957512999476552,0.0938627980783937,0.09080255368978425,-0.07409462470944223
2.0930001735687256,car (1).jpg,0.08101827872017368,0.09283108625782564,0.08840725134697573,-0.07232530532184903,0.09157708633864955,0.0908718440975957,0.09149675416907718,0.09287760023803714,0.08988403110313786,0.09251087516675892,0.0890823187330149,0.08958787048910505,0.0895655410963942,0.0938391946362489,0.09080228546885079,-0.07416983832953433
2.0950000286102295,car (1).jpg,0.08108294231688289,0.09285012994410156,0.08842788200710798,-0.07277953747266978,0.09155547220176127,0.09089122306003845,0.09151519435825281,0.0928938723080006,0.08989730803934431,0.09251959234709649,0.08909208644534188,0.089597146463054,0.08958277429136924,0.09383928404322672,0.09081417659690101,-0.07457462842161994
2.0950000286102295,car (1).jpg,0.08099887740598648,0.0928338578741381,0.08841143112318887,-0.07254104435933165,0.09158439535908644,0.09087622503950894,0.09150283384356903,0.09288459633405165,0.0898814606525255,0.09250155448932106,0.08907454032594446,0.08958047206169034,0.0895644905644048,0.09385848419171383,0.09079555759376974,-0.07394227521923485
2.0950000286102295,car (1).jpg,0.0810821376540825,0.09284208331609765,0.08841612498952449,-0.07243856161100407,0.09155940610878541,0.09087986837385516,0.09150305736101358,0.09288144473808345,0.08989350824278691,0.09252209574247548,0.08909412045408731,0.08959835345725459,0.08957633698896611,0.09382817522623244,0.09081350604456735,-0.07460107053531057
2.0960001945495605,car (1).jpg,0.08105855656368215,0.09284959350223464,0.08842801611757471,-0.07287495706974949,0.09156924087634574,0.09089108894957172,0.09151700484955369,0.09289778386328028,0.08989024488809644,0.09250700831496815,0.08908104468358095,0.08958702112281575,0.08957571114012136,0.09386387096212756,0.09080279955897326,-0.07410130788103436
2.0960001945495605,car (1).jpg,0.08104228449371868,0.0928324050107485,0.0884060667045196,-0.07231810806013442,0.09157464999850393,0.0908705476964173,0.0914955918783655,0.0928770190926813,0.08988378523394885,0.09251051753884763,0.08908334691325985,0.08958813871003851,0.08956502700627172,0.09383944050543791,0.09080183843396168,-0.0741634010271312
2.0960001945495605,car (1).jpg,0.08110522700610483,0.09285247687726937,0.08842868666990837,-0.07277437421970061,0.09155484635291652,0.09089088778387162,0.09151503789604162,0.0928932688109003,0.08989793388818906,0.09251981586454104,0.08909403104710949,0.08959835345725459,0.0895827966431137,0.09383946285718237,0.09081460128004566,-0.07457896466004427
2.0970001220703125,car (1).jpg,0.08101139438288145,0.09283495310961641,0.08841221343424481,-0.07254996270536931,0.09158390362070842,0.0908764485569535,0.09150272208484675,0.09288551275557431,0.08988360641999321,0.0925030297044551,0.08907731194225692,0.0895826401809025,0.08956583166907212,0.09386051820045926,0.09079714456762607,-0.07393905656803329
2.0970001220703125,car (1).jpg,0.08108524454656178,0.09284489963589902,0.08841885190234804,-0.0724517938437216,0.09156182009718658,0.09088239412097861,0.09150573957034822,0.092884417520096,0.08989703981841085,0.09252464384134339,0.08909809906460035,0.08960177327415625,0.08957951093667876,0.09383134917394509,0.09081645647483545,-0.0745913475264725
2.0970001220703125,car (1).jpg,0.08105938357822699,0.09285113577260205,0.08842971485015332,-0.07288863633735614,0.09157145369904682,0.09089276533040587,0.09151897180306576,0.09289963905807007,0.08989272593173098,0.09250841647486883,0.08908372689291559,0.089589144538539,0.0895777898523557,0.09386563674993953,0.09080476651248533,-0.07412227381733344
2.0980000495910645,car (1).jpg,0.08104226214197423,0.09283573542067235,0.08840953122491017,-0.07232425478985963,0.09157909799565053,0.0908741463272746,0.0914997940063231,0.09288026009562732,0.08988908259738476,0.09251507729471652,0.08908897955286259,0.08959321255602987,0.08957021261098536,0.09384480492410718,0.09080659935553066,-0.07418606569600888
2.0980000495910645,car (1).jpg,0.08110925032010678,0.09285784129593865,0.08843431930951111,-0.07276883098707569,0.09156070250996381,0.09089719097580802,0.09152140814321139,0.09290111427320412,0.08990387945221417,0.0925259849460107,0.08910078127393499,0.0896045001869798,0.0895887422071388,0.09384585545609658,0.09082005510569276,-0.07459581787536357
2.0980000495910645,car (1).jpg,0.08102947694414579,0.09284045163875242,0.08841744374244735,-0.07253983736513106,0.09158823985913275,0.09088221530702296,0.09150842177968285,0.09289297823822239,0.08988850145202892,0.09250792473649082,0.08908327985802648,0.08958787048910505,0.08957099492204129,0.0938663520057621,0.0908016819717505,-0.07393778251859934
2.0980000495910645,car (1).jpg,0.0811072386631058,0.0928486100254786,0.08842233877448306,-0.07243505238712458,0.0915648599344325,0.09088628332451383,0.09150987464307245,0.09288973723527637,0.0899000126004234,0.09252775073382268,0.08910221178558013,0.08960472370442435,0.08958237195996904,0.09383523837748031,0.09081947396033692,-0.07459834362248702
2.0989999771118164,car (1).jpg,0.08107637090401303,0.09285455558950372,0.08843308996356607,-0.07288275782856439,0.0915739123909369,0.09089663218219664,0.0915225480821786,0.09290388588951658,0.08989665983875511,0.09251241743712633,0.08908873368367358,0.08959285492811858,0.08958165670414647,0.09387001769185277,0.0908086333642761,-0.07412160326499978
2.562000036239624,car (1).jpg,0.08106110466255005,0.09283752356022877,0.08841120760574432,-0.07232186315320291,0.0915804614520623,0.0908764485569535,0.09150160449762398,0.09288269643577295,0.0898909154404301,0.0925166866203173,0.08909166176219722,0.08959448660546382,0.08957175488135277,0.09384730831948618,0.09080800751543135,-0.07417846610289408
2.562000036239624,car (1).jpg,0.08112967981453893,0.09285878006920577,0.08843516867580041,-0.07276921096673143,0.09156159657974203,0.09089806269384178,0.09152183282635604,0.09290189658426005,0.08990530996385931,0.09252663314659991,0.08910294939314715,0.08960528249803573,0.08958988214610603,0.09384683893285262,0.09082097152721542,-0.0746054067737349
2.562000036239624,car (1).jpg,0.08104454201990867,0.0928412115980639,0.08841822605350329,-0.07255572945543878,0.09158942450158888,0.09088295291458999,0.09150831002096058,0.09289159243006616,0.08989002137065188,0.09250861764056893,0.08908511270107182,0.08958871985539435,0.08957204545403069,0.09386724607554031,0.09080262074501762,-0.0739511041582947
2.562000036239624,car (1).jpg,0.08112570120402589,0.09284977231619028,0.08842321049251682,-0.07244618355586332,0.0915665139635222,0.09088731150475877,0.0915105004919172,0.09289011721493211,0.08990054904229033,0.09252826482394515,0.08910294939314715,0.08960517073931346,0.08958308721579161,0.09383606539202516,0.09081942925684801,-0.07460884894238101
2.562000036239624,car (1).jpg,0.08109981788394664,0.09285609785987113,0.08843400638508873,-0.07289858286363875,0.09157505232990412,0.0908983532665197,0.09152333039323454,0.09290495877325043,0.08989829151610035,0.09251476437029414,0.08909058887846337,0.08959482188163065,0.08958375776812527,0.0938726551976985,0.09081001917243232,-0.07413170625349358
2.562999963760376,car (1).jpg,0.0810733310667671,0.09284112219108608,0.08841429214647915,-0.07234050450807863,0.09158332247535259,0.09088058362967773,0.09150468903835882,0.0928873232468752,0.08989395527767602,0.09252039700989688,0.08909465689595424,0.08959777231189875,0.08957512999476552,0.09385209159279961,0.09081089089046608,-0.07418436696343028
2.562999963760376,car (1).jpg,0.08114456607634617,0.0928608140779512,0.08843599569034526,-0.07278103503954829,0.09156202126288668,0.09089989553688711,0.09152337509672345,0.09290241067438253,0.0899063157923598,0.0925282871756896,0.08910382111118091,0.08960631067828068,0.08959167028566245,0.09384838120322003,0.09082242439060502,-0.07460679258189112
2.562999963760376,car (1).jpg,0.08105810952879304,0.092844162028332,0.08841981302735961,-0.07256330669680913,0.09159127969637867,0.0908852998477578,0.0915117521896067,0.09289384995625614,0.08989167539974158,0.0925103834283809,0.08908663261969478,0.08958997155308385,0.08957461590464305,0.09386921302905238,0.09080465475376305,-0.07394998657107194
2.562999963760376,car (1).jpg,0.08113587124775305,0.09285249922901383,0.08842499863207325,-0.07244866459949786,0.09156921852460129,0.09088959138269322,0.09151340621869639,0.09289331351438922,0.08990548877781496,0.0925328916350474,0.08910829146007197,0.0896099987161158,0.08958822811701633,0.09383997694730484,0.09082452545458382,-0.07460131640449957
2.562999963760376,car (1).jpg,0.0811190403841782,0.09286137287156258,0.08843856614095762,-0.07290667419513157,0.09157983560321756,0.09090246598749947,0.09152853834969263,0.09291023378494188,0.08990222542312448,0.09251769244881779,0.08909539450352126,0.08959842051248795,0.08958760226817158,0.0938743539302771,0.09081386367247864,-0.07413192977093813
2.562999963760376,car (1).jpg,0.08109429700306618,0.09284364793820953,0.08841599087905776,-0.07234233735112397,0.09158674229225425,0.09088183532736722,0.09150741595118236,0.09288913373817607,0.08989663748701066,0.09252276629480914,0.08909843434076718,0.08960047687297784,0.08957796866631135,0.0938537009184004,0.09081352839631181,-0.07416612793995475
2.564000129699707,car (1).jpg,0.08116423561146684,0.09286680434546522,0.0884410248328477,-0.07278789702509607,0.09156857032401208,0.09090559523172322,0.09152918655028183,0.09290857975585219,0.08991355775756332,0.09253593147229332,0.08911269475372967,0.08961406673360667,0.08959846521597686,0.09385542200272345,0.09082930872789725,-0.07459601904106367
2.564000129699707,car (1).jpg,0.08107746613949134,0.09285064403422404,0.0884265185506962,-0.07257269442948036,0.09159950513833823,0.09089321236529498,0.09151879298911011,0.09290220950868243,0.08989900677192292,0.09251809478021798,0.0890955733174769,0.08959741468398746,0.089581142614024,0.09387674556693382,0.09081095794569945,-0.07395734029499773
2.564000129699707,car (1).jpg,0.0811582006404639,0.09285813186861656,0.08843029599550915,-0.07244779288146411,0.09157612521363798,0.09089652042347436,0.09151970941063278,0.09289753799409127,0.08990960149879473,0.09253673613509371,0.08911338765780778,0.08961306090510618,0.08959131265775117,0.09384442494445144,0.09082734177438519,-0.0746054067737349
2.564000129699707,car (1).jpg,0.08113801701522076,0.0928648150402087,0.0884416730334369,-0.07289348666590294,0.09158426124861971,0.09090718220557954,0.09153312045730597,0.09291213368322059,0.08990653930980436,0.09252138048665291,0.08909973074194559,0.08960090155612249,0.08959048564320632,0.0938779525611344,0.09081661293704664,-0.0741431503466547
2.564000129699707,car (1).jpg,0.08111253602654171,0.09284682188592218,0.08841856132967012,-0.07232738403408337,0.09159022916438928,0.09088639508323611,0.09151217687275134,0.09289192770623299,0.08989969967600103,0.09252471089657675,0.08910109419835736,0.08960119212880041,0.08957948858493431,0.09385582433412365,0.09081504831493477,-0.07418081303606189
2.565000057220459,car (1).jpg,0.08118064179189703,0.09286622320010939,0.08843963902469147,-0.07275638106541409,0.09156787741993397,0.09090619872882351,0.09152996886133777,0.09290779744479626,0.08991183667324026,0.09253331631819205,0.08911010195137285,0.08960973049518234,0.08959488893686401,0.09385218099977743,0.09082638064937361,-0.07461278284940515
2.565000057220459,car (1).jpg,0.081096889805423,0.09284849826675633,0.08842258464367207,-0.07255166143794792,0.09159566063829191,0.09089073132166044,0.09151780951235408,0.09289874498829186,0.08989545284455452,0.09251375854179365,0.08909087945114129,0.089591893803107,0.08957611347152156,0.09387187288664256,0.09080682287297522,-0.07395481454787428
2.565000057220459,car (1).jpg,0.08115909471024212,0.09285422031333689,0.08842528920475116,-0.07243739932029239,0.09157143134730236,0.0908922512402834,0.09151711660827597,0.09289286647950011,0.08990658401329327,0.09253369629784779,0.08910931964031692,0.0896089481841264,0.0895865964396711,0.09384066985138295,0.09082421253016144,-0.07459503556430763
2.565000057220459,car (1).jpg,0.08111939801208949,0.09286349628728584,0.08843919198980237,-0.07289449249440343,0.09158175785324071,0.09090586345265668,0.09153262871892795,0.09290945147388595,0.08990758984179376,0.09252227455643112,0.08910008836985688,0.08960128153577823,0.08958985979436157,0.09387734906403411,0.09081779757950277,-0.0741501017391803
2.565000057220459,car (1).jpg,0.08108220470931586,0.09284912411560108,0.08842079650411565,-0.07233706233943252,0.091592866670235,0.09088880907163728,0.09151492613731935,0.09289273236903338,0.08990244894056904,0.09252692371927783,0.08910361994548081,0.08960353906196822,0.08958040500645698,0.09385745601146889,0.09081761876554713,-0.07417167117257967
2.565999984741211,car (1).jpg,0.0811337478320298,0.09286964301701105,0.08844328235903769,-0.0727701273882541,0.0915724148240584,0.0909095514904918,0.09153439450673992,0.09291043495064198,0.08991691051923162,0.09253758550138301,0.0891151310938753,0.08961458082372914,0.08959871108516587,0.09385582433412365,0.09083127568140932,-0.07461034650925952
2.565999984741211,car (1).jpg,0.08104228449371868,0.09285247687726937,0.08842663030941848,-0.07257034749631255,0.09160037685637198,0.09089430760077329,0.09152172106763376,0.09290084605227066,0.08989969967600103,0.09251711130346195,0.08909429926804295,0.08959540302698649,0.08957877332911174,0.09387489037214403,0.09081055561429925,-0.07394506918729177
2.565999984741211,car (1).jpg,0.08110263420374801,0.09285781894419419,0.08842844080071936,-0.07244444011979581,0.0915756111235155,0.09089598398160743,0.09151946354144377,0.09289418523242297,0.08991143434184007,0.0925379878327832,0.08911314178861877,0.08961326207080628,0.08959032918099513,0.09384473786887382,0.09082836995463013,-0.07458658660490353
2.565999984741211,car (1).jpg,0.08107500744760125,0.09286821250536591,0.08844393055962689,-0.07290707652653176,0.09158569176026485,0.09091078083643685,0.09153656262595208,0.09291461472685512,0.08990942268483909,0.09252372741982072,0.08910078127393499,0.08960300262010129,0.08959129030600671,0.09387967364545746,0.09081916103591454,-0.07414619018390062
2.565999984741211,car (1).jpg,0.0810434244326859,0.09284943704002345,0.08842106472504911,-0.07234262792380189,0.0915915702690566,0.09088851849895936,0.09151349562567421,0.09289192770623299,0.08990405826616982,0.09252781778905604,0.08910379875943646,0.08960496957361336,0.08958150024193529,0.09385973588940333,0.09081880340800326,-0.0741646527248207
2.568000078201294,car (1).jpg,0.081110390259074,0.09287230287460123,0.0884460763270946,-0.07277462008888962,0.09157252658278067,0.09091089259515912,0.09153499800384021,0.09291041259889753,0.08991813986517666,0.09253825605371667,0.08911546637004213,0.08961583252141864,0.08959978396889973,0.09385911004055858,0.09083232621339872,-0.07460504914582361
2.568000078201294,car (1).jpg,0.08102923107495678,0.09285424266508134,0.08842917840828639,-0.07257653892952667,0.09159943808310486,0.09089555929846278,0.09152167636414485,0.09290321533718292,0.08990189014695765,0.09251894414650728,0.08909660149772185,0.08959812993981003,0.08958118731751291,0.09388061241872458,0.09081276843700033,-0.07394763963790413
2.568000078201294,car (1).jpg,0.08108967019196393,0.09286219988610743,0.08843324642577725,-0.07244573652097422,0.09157764513226094,0.09089924733629791,0.09152232456473405,0.09290015314819254,0.08991460828955272,0.0925410947252625,0.08911698628866509,0.08961710657085259,0.08959397251534135,0.09385137633697704,0.09083181212327625,-0.07458862061364896
2.569000005722046,car (1).jpg,0.08106474799689627,0.09287076060423381,0.08844638925151697,-0.07290855174166581,0.09158674229225425,0.09091254662424882,0.0915374566957303,0.09291651462513383,0.08991313307441867,0.09252766132684485,0.08910525162282605,0.0896072494515478,0.08959511245430857,0.09388593213390495,0.09082296083247195,-0.07414033402685333
2.570000171661377,car (1).jpg,0.08103164506335796,0.09285522614183737,0.08842683147511858,-0.07234859583957146,0.09159733701912606,0.09089457582170675,0.09151888239608794,0.09289773915979137,0.08990718751039356,0.09253161758561344,0.08910753150076049,0.08960847879749284,0.0895851435762815,0.0938657485086618,0.09082235733537165,-0.0741420998146653
2.570000171661377,car (1).jpg,0.08109456522399965,0.0928745156973023,0.08844815503932894,-0.07278101268780383,0.09157648284154926,0.09091417830159405,0.09153716612305238,0.09291385476754364,0.08992229728964535,0.09254319578924129,0.08912024964335556,0.08962081696043217,0.08960434372476861,0.09386396036910538,0.09083695302450097,-0.0745999529480878
2.570000171661377,car (1).jpg,0.08101291430150441,0.0928603670430621,0.08843519102754487,-0.07259193928145638,0.09160681415877511,0.09090226482179938,0.09152789014910342,0.09290875856980783,0.08990685223422673,0.09252437562040992,0.08910172004720211,0.08960360611720158,0.08958637292222654,0.09388593213390495,0.09081795404171396,-0.0739435045651799
2.570000171661377,car (1).jpg,0.08107440395050096,0.09286515031637553,0.08843608509732308,-0.0724570018001797,0.0915819143154519,0.09090244363575502,0.09152491736709087,0.09290225421217134,0.08991673170527598,0.09254310638226347,0.08911879677996597,0.08961927469006475,0.08959567124791995,0.09385338799397802,0.09083382378027723,-0.0745755001396537
2.570000171661377,car (1).jpg,0.08105160517115655,0.09287397925543538,0.08844936203352953,-0.07292864595993113,0.09159020681264482,0.0909156535167281,0.09154063064344295,0.09291968857284648,0.08991608350468677,0.09253029883269058,0.08910782207343841,0.08960997636437135,0.08959817464329894,0.09388968722697344,0.09082582185576223,-0.07415633787588333
2.570000171661377,car (1).jpg,0.0810179210922624,0.09285723779883835,0.08842754673094115,-0.07235250739485113,0.09159925926914922,0.0908960510368408,0.09152006703854407,0.09289963905807007,0.0899077686557494,0.09253217637922483,0.08910764325948277,0.08960899288761531,0.08958594823908189,0.09386753664821823,0.09082251379758284,-0.07416939129464523
2.571000099182129,car (1).jpg,0.08108544571226188,0.09287610267115863,0.08844759624571756,-0.07278018567325899,0.09157473940548175,0.09091433476380524,0.09153741199224139,0.09291430180243275,0.08992281137976782,0.09254350871366367,0.08912011553288883,0.08962090636740999,0.08960472370442435,0.09386422859003885,0.0908370871349677,-0.07462042714600886
2.571000099182129,car (1).jpg,0.08098061603076649,0.092860411746551,0.08843550395196724,-0.07259491206346894,0.09160630006865264,0.09090349416774442,0.09152916419853738,0.09291001026749733,0.08990859567029424,0.09252540380065487,0.08910290468965824,0.0896047460561688,0.08958842928271643,0.09388718383159445,0.09081931749812573,-0.07395877080664287
2.571000099182129,car (1).jpg,0.08104440790944194,0.09286539618556454,0.08843756031245713,-0.07244490950642937,0.0915825625160411,0.09090476821717837,0.09152683961711403,0.09290504818022825,0.089919972708222,0.09254585564683147,0.08912223894861208,0.08962258274824414,0.0895994486927329,0.0938566513486685,0.09083704243147879,-0.07458777124735966
2.571000099182129,car (1).jpg,0.08101590943526142,0.09287391220020201,0.08845146309750833,-0.07291405027080182,0.09159110088242303,0.09091822396734046,0.09154277641091066,0.0929231754449815,0.08991755871982082,0.09253096938502424,0.08910972197171711,0.08961129511729421,0.0896002980590222,0.09389031307581819,0.09082734177438519,-0.07415381212875988
2.571000099182129,car (1).jpg,0.0809890649901706,0.09285607550812668,0.0884294242774754,-0.07235261915357341,0.09160006393194961,0.09089743684499703,0.09152174341937822,0.09290203069472679,0.08991038380985067,0.09253362924261442,0.08911104072463998,0.0896116974486944,0.089589144538539,0.09386968241568594,0.09082535246912866,-0.07414842535834615
2.571000099182129,car (1).jpg,0.08105989766834946,0.09287630383685873,0.08845103841436368,-0.07278427604249431,0.09157806981540559,0.09091648053127295,0.09153946835273127,0.09291749810188986,0.08992406307745732,0.09254379928634159,0.08912237305907882,0.08962224747207731,0.08960646714049186,0.09386478738365023,0.09083860705359066,-0.07460951949471467
