Timestamp,Filename,1/Fp1,2/Fp2,3/Cz,4/Pz,5/P7,6/P8,7/O1,8/O2,9/CP5,10/CP6,11/CP1,12/CP2,13/PO3,14/PO4,15/P3,16/P4
0.44700002670288086,black.png,0.047852425021222236,0.06388086097012292,0.06370810433722786,0.06507527113858118,0.059917159070629965,0.057862944348209426,0.0616438983850358,0.05881964371438547,0.06075485774932596,0.05264378966615077,0.06271228941825502,0.062049716657366354,0.06395898031699422,0.060138754265159876,0.062271200093173995,0.06096529942337268
0.44700002670288086,black.png,0.047837672869881734,0.06386429832748154,0.06369006647945243,0.06505645096974981,0.05989704250062019,0.05784546528404537,0.061623759463281566,0.0588020752432436,0.060717485632596685,0.052611044360523745,0.06271052363044305,0.06204991782306645,0.06395772861930472,0.060105852497321664,0.06227193770074102,0.060968026336196225
0.44700002670288086,black.png,0.04782734636394338,0.06388405726958003,0.06371206059599645,0.06507817686536037,0.059920780053231724,0.05786061976678607,0.06164955337638299,0.058815776862594704,0.060751057952768556,0.05280295643841701,0.06272677334866206,0.062064714677895864,0.0639742018549683,0.06013486506162465,0.06228769568058201,0.06098273378404782
0.44700002670288086,black.png,0.04786091868411525,0.06387458012993098,0.06370110824121335,0.06506910205711151,0.05990660904724706,0.05785932336560766,0.06163446594887566,0.05881823555448479,0.060741156129974855,0.052547565406270674,0.06270837786297534,0.062046900337564985,0.06395381706402505,0.06012697489583193,0.06226793673848352,0.06096190195821547
0.44700002670288086,black.png,0.047818182148716706,0.063875071868309,0.06370209171796938,0.06506749273151073,0.059909447718792884,0.05785078499922573,0.061638332800666426,0.058804153955477945,0.06072732040015702,0.05277613434507064,0.06272594633411721,0.06206473702964032,0.06397232430843405,0.06011372031136993,0.062288008605004386,0.06098380666778167
0.44700002670288086,black.png,0.047853006166578074,0.06388734297601496,0.06371480986056445,0.0650821107723845,0.059921919992198945,0.057868286415134244,0.06164935221068289,0.058824203470254355,0.06076337376396343,0.052663101573360155,0.06271975490090309,0.062056846863847596,0.06396501528799717,0.06014525862279637,0.062278397354888604,0.06097184848449808
0.44700002670288086,black.png,0.04784031037572746,0.06387040035371784,0.06369645907836664,0.06506297767913076,0.059902205753589365,0.05785042737131445,0.0616304426348737,0.05880831137994663,0.06072483935652248,0.0526182192704939,0.06271658095319044,0.06205534929696909,0.06396179663679559,0.06011135102645767,0.06227721271243247,0.06097267549904293
0.44700002670288086,black.png,0.047843864303095854,0.06388922052254921,0.06371749206989909,0.06508307189739608,0.05992522805037833,0.057863950176709915,0.061653822559573954,0.05881857083065162,0.0607579869935497,0.05282027904036987,0.06273321065106519,0.06206983322737613,0.06397891807304837,0.060139335410515714,0.06229299304401792,0.06098711472596106
0.44700002670288086,black.png,0.04785542015497925,0.06387815640904383,0.06370633854941589,0.06507428766182514,0.059912062872894155,0.05786131267086418,0.06164079149255651,0.05882199064755328,0.06075007447601252,0.052555612034274585,0.06271447988921164,0.06205130363122268,0.06395969557281679,0.06013135583774517,0.062272965880985964,0.060965746458261784
0.44700002670288086,black.png,0.047810850776535366,0.06387864814742185,0.06370642795639371,0.06507223130133526,0.05991440980606196,0.05785257313878216,0.06164425601294708,0.058808534897391185,0.06073612698747241,0.05279803905463684,0.0627328530231539,0.06207063789017652,0.06397943216317084,0.06011991174458405,0.062294155334729595,0.060989595769595596
0.46200013160705566,black.png,0.04784531716648545,0.06389112042082791,0.06372059896237837,0.065088615130021,0.059928111425413065,0.05787353907508124,0.06165730943170898,0.05883166895290243,0.06077043691521131,0.05268263699801409,0.06272433700851643,0.06206107134354965,0.06396946328514377,0.06015044422751,0.062282398317146104,0.06097616237117796
0.46200013160705566,black.png,0.0478288886343108,0.06387205438280753,0.06370075061330206,0.06506787271116647,0.059905625570491026,0.05785483066497214,0.061633437768630714,0.05881331817070462,0.06073217072870382,0.05263178677937827,0.06272199007534862,0.062060758419127275,0.06396754103512062,0.06011711777652714,0.06228221950319046,0.06097795051073438
0.4630000591278076,black.png,0.04783101205003405,0.06389208154583949,0.06372375055834657,0.06508977742073267,0.059930681876025425,0.057869716926779384,0.06166021515848817,0.058823488214431785,0.06076612302853143,0.05281343940656655,0.0627387538836901,0.06207622582629035,0.06398468482311784,0.0601426434686951,0.062298782145831844,0.06099230033067469
0.4630000591278076,black.png,0.04787220631506518,0.06388173268815668,0.06371170296808516,0.06507983089445006,0.059916063835151655,0.05786768291803395,0.06164416660596926,0.05882583514759959,0.06075622120573773,0.05256296575820038,0.06271731856075746,0.062055908090580474,0.0639624895408737,0.0601352897447693,0.062276385697887626,0.060969792124008194
0.4630000591278076,black.png,0.04784587596009683,0.06387837992648839,0.06371089830528477,0.06507712633337097,0.05991655557352967,0.05785889868246301,0.06164640178041479,0.05881517336549441,0.06074030676368555,0.052787980769631954,0.06273388120339884,0.06207338715474452,0.06398052739864915,0.06011926354399485,0.06229623404696394,0.060991227446940834
0.4630000591278076,black.png,0.04788311396635937,0.06389080749640554,0.06372341528217974,0.06509127498761118,0.05992940782659147,0.057875997766971325,0.061657957632298185,0.058830439606957385,0.060776963624592256,0.05268321814336993,0.06272724273529562,0.062065094657551605,0.06397297250902326,0.06015077950367683,0.06228675690731489,0.06097924691191279
0.4630000591278076,black.png,0.047870105251086384,0.06387328372875258,0.06370539977614877,0.06507330418506911,0.05991031943682664,0.05786144678133092,0.0616388468907889,0.05881962136264102,0.06073945739739625,0.05264258267195018,0.06272494050561672,0.06206496054708487,0.06397078203806664,0.060119755282372865,0.06228646633463697,0.060981839714269605
0.46400022506713867,black.png,0.047867288931285015,0.06389118747606128,0.06372661158163685,0.06509375603124572,0.05993457107956065,0.057874231979159356,0.06166269620212271,0.05882726565924473,0.0607708392466115,0.05283672992428898,0.0627406537819688,0.062078572759458155,0.06398687529407446,0.06014335872451767,0.06230179963133331,0.060995273112687244
0.46400022506713867,black.png,0.04790984665272792,0.06388173268815668,0.06371315583147476,0.06508258015901806,0.05992042242532044,0.057869046374445725,0.06164651353913707,0.058826349237722064,0.060761675031384826,0.05257163823504904,0.0627193972729918,0.06205698097431433,0.06396468001183032,0.06013446273022446,0.06227864322407761,0.06097117793216442
0.46400022506713867,black.png,0.04788389627741531,0.0638771729322878,0.06371230646518546,0.06507942856304987,0.0599217411782433,0.057856529397550746,0.06164850284439359,0.058813586391638084,0.0607472358044667,0.052799357807559705,0.06273931267730148,0.06207656110245718,0.0639847071748623,0.060121275200995826,0.06230045852666599,0.06099475902256477
0.46400022506713867,black.png,0.047902627039268855,0.06389436142377393,0.06372875734910456,0.06509728760686966,0.05993884026275161,0.05787541662161549,0.06166298677480063,0.05883542404597092,0.0607849431973628,0.05269799264645489,0.06273365768595429,0.062068849750620096,0.06397742050616986,0.06015377463743384,0.062290959035272486,0.060982934949747915
0.46400022506713867,black.png,0.04788508091987144,0.06387408839155297,0.06370707615698291,0.06507529349032563,0.059916108538640565,0.05785494242369442,0.06163945038788919,0.05881890610681845,0.0607442853741986,0.05264510841907363,0.06272882970915195,0.06206565345116299,0.06397317367472335,0.06011888356433911,0.06228841093640458,0.06098253261834772
0.46400022506713867,black.png,0.047883248076826104,0.0638931767813178,0.06373081370959445,0.06509815932490341,0.05994270711454238,0.05787032042387968,0.061668395896958814,0.05882909850229007,0.060777924749603834,0.05284544710462655,0.06274789574717232,0.0620834007362605,0.06399221736099928,0.060146666782697054,0.062307007587791396,0.060999788165067216
0.4650001525878906,black.png,0.04792598461222465,0.06388589011262537,0.06371968254085571,0.06508908451665456,0.059928491405068805,0.05787076745876878,0.061652570861884456,0.058834060589559145,0.060770302804744575,0.05258668095906746,0.06272753330797354,0.062064289994751214,0.06397167610784485,0.0601432916692843,0.06228541580264757,0.06097853165609022
0.4650001525878906,black.png,0.04789587681244335,0.06388325260677964,0.0637209342385452,0.0650882127986208,0.05992978780624721,0.057863234920887345,0.061656147140997306,0.058823443510942874,0.06075262257488043,0.052808499671041925,0.06274393948840373,0.062082193742059914,0.0639895575034091,0.060126371398731636,0.06230571118661299,0.06100063753135652
0.4650001525878906,black.png,0.04792965029831532,0.06389650719124164,0.06373316064276226,0.06510227204588319,0.05994143306510843,0.057880043432717736,0.06166616072251328,0.058839380304739515,0.060789726470676236,0.05270856502158225,0.06273680928192249,0.06207383418963363,0.0639826061108835,0.06015851320725837,0.06229656932313077,0.06098827701667273
0.4660000801086426,black.png,0.04790756677479348,0.06387853638869957,0.0637137369768306,0.0650829154351849,0.05992022125962034,0.057863190217398434,0.06164678176007053,0.05882469520863237,0.06075065562136836,0.05265096457612092,0.06273204836035351,0.06207135314599909,0.06397773343059224,0.06012482912836422,0.06229399887251841,0.060987986443994814
0.4660000801086426,black.png,0.047906583298037445,0.06389617191507481,0.0637352393549966,0.06510303200519467,0.05994337766687604,0.05787577424952677,0.061669960519070685,0.05883247361570282,0.0607811434008054,0.052859171075722106,0.06274894627916172,0.062086909960139984,0.06399409490753352,0.06014858903272021,0.06231038270120415,0.06100325268545779
0.4660000801086426,black.png,0.04793698167049666,0.06388843821149327,0.06372292354380173,0.06509259374053404,0.05992871492251336,0.05787454490358173,0.06165299554502911,0.058834731141892804,0.06077345440071277,0.05258167416830947,0.06272697451436215,0.06206545228546289,0.06397116201772238,0.06014217408206154,0.06228671220382598,0.06097862106306804
0.4660000801086426,black.png,0.04789078061470754,0.0638824255922348,0.06371990605830026,0.06508740813582041,0.059927686742268414,0.057862094981920124,0.06165377785608504,0.05881955430740765,0.06075474599060368,0.052813461758311,0.06274398419189264,0.062083333681027135,0.06398998218655375,0.06012596906733144,0.06230698523604694,0.06100124102845681
0.4660000801086426,black.png,0.047926588109324944,0.06389999406337667,0.0637358428520969,0.06510609419418505,0.059945165806432464,0.05788265858681901,0.06167156984467147,0.05884302363908573,0.06079421917131176,0.05272528412643482,0.06273962560172386,0.06207716459955747,0.06398564594812942,0.060160949547403995,0.06229976562258788,0.06099138390915202
0.46700000762939453,black.png,0.04790875141724961,0.06388171033641223,0.06371561452336484,0.065085865865453,0.05992357402128864,0.0578651571709105,0.061648905175793786,0.05883003727555719,0.06075528243247061,0.05266084404717017,0.0627351552528328,0.06207446003847838,0.06398023682597123,0.060127846613865686,0.06229699400627542,0.06099133920566311
0.46700000762939453,black.png,0.047900727140990154,0.06389885412440945,0.06373718395676421,0.06510634006337405,0.05994733392564463,0.0578769588919829,0.061673290928994526,0.05883698866808279,0.06078731248227506,0.05288666372140213,0.06275480243620901,0.062092184971831436,0.06400033104423655,0.060153707582200476,0.06231608239604025,0.061008885325060526
0.46700000762939453,black.png,0.0479367134495632,0.06389478610691858,0.06372922673573812,0.06510037214760449,0.05993700741970628,0.05787903760421725,0.06166198094630014,0.058845482330975814,0.06078333387176202,0.052624522462430295,0.06273618343307774,0.06207378948614472,0.06397974508759321,0.060151762980432864,0.06229518351497454,0.06098747235387234
0.46700000762939453,black.png,0.047898246097355615,0.06389060633070544,0.06372871264561565,0.06509692997895837,0.05993660508830608,0.05786797349071187,0.06166173507711113,0.05882956788892363,0.06076417842676382,0.05285306904948581,0.06275399777340862,0.062092140268342526,0.06399782764885756,0.06013309927381268,0.06231561300940669,0.06100948882216082
0.46700000762939453,black.png,0.04794075911530961,0.0639081300983584,0.06374569997140168,0.06511525840941172,0.059952899510014,0.057888805316544216,0.06167823066451915,0.05885010914207806,0.06080463508422793,0.052759392888473616,0.06275022032859567,0.062086529980484244,0.06399331259647759,0.06016870560272999,0.06230837104420317,0.0609990952609891
0.46700000762939453,black.png,0.04791954730982152,0.06388915346731584,0.06372446581416914,0.06509382308647908,0.059929832509736124,0.05787067805179096,0.06165527542296355,0.058834529976192707,0.06076232323197403,0.052682681701503004,0.06274217370059176,0.06208036089901458,0.06398584711382951,0.0601314899482119,0.06230209020401123,0.060995228409198333
0.4680001735687256,black.png,0.04792589520524683,0.06390428559831209,0.06374339774172279,0.06511192799948788,0.0599512007774354,0.057881183371684956,0.06167778362963004,0.05884134725825158,0.06079325804630018,0.05290774141642349,0.06276117268337877,0.06209826464632328,0.06400598603558375,0.06015659095723521,0.06232142446296507,0.06101328861871822
0.4680001735687256,black.png,0.04803890562521286,0.06390567140646831,0.06373660281140837,0.06510783763025256,0.05994308709419812,0.05788639132814304,0.06166812767602535,0.058849907976377965,0.060793190991066816,0.05265559138722317,0.06274405124712601,0.062082193742059914,0.06398776936385267,0.06015603216362383,0.06230298427378944,0.060994222580697845
0.4680001735687256,black.png,0.04802095717441525,0.06390388326691189,0.06373814508177579,0.06510703296745217,0.05994590341399949,0.05787859056932814,0.06167118986501573,0.058836876909360514,0.06077866235717086,0.052909663666446644,0.06276620182588122,0.062105819535949174,0.06401034462575253,0.060142956393117473,0.06232893464910205,0.0610224528339449
0.4680001735687256,black.png,0.04805942452662283,0.0639296324765244,0.06376295551812118,0.06513383270905408,0.05997142910616745,0.05790858661038716,0.06169483801064944,0.05886841522078696,0.06082980314848461,0.052850364488406715,0.06277199092769514,0.06211026753309578,0.06401629018977764,0.06018953742856233,0.06233275679740391,0.061023123386278556
0.4680001735687256,black.png,0.04804451591307114,0.06391897069441922,0.06375017032029275,0.06512095810424783,0.059957302803671696,0.05789922122946039,0.06168261160643239,0.05886121795907235,0.060794621502711955,0.05278123054280645,0.06277060511953891,0.062110915733684983,0.06401450205022122,0.06015965314622559,0.062333203832293016,0.06102567148514646
0.46900010108947754,black.png,0.04803291535769884,0.0639401377964184,0.06377663478572783,0.06514626027897123,0.05998589068483003,0.05791627561047979,0.06171180298469102,0.05887503133714573,0.06083042899732936,0.0530231658247907,0.06279528144541757,0.062133915678729494,0.0640399159836669,0.06019074442276292,0.06235779075119385,0.06104954314822473
0.46900010108947754,black.png,0.04806691236101536,0.06394241767435284,0.06377238795428132,0.06514449449115926,0.0599809062458165,0.057923428168705486,0.06170498570263215,0.05888801770067426,0.06083380411074211,0.052752776772114846,0.06278164688129984,0.0621202587628673,0.06402523088755976,0.06019566180654309,0.06234243510275306,0.06103268993290543
0.46900010108947754,black.png,0.04801190471791085,0.06393872963651771,0.06377659008223892,0.06514626027897123,0.05998656123716369,0.057917169680258,0.061711199487590726,0.0588786970232364,0.06081902960765715,0.052989124117985266,0.06280453506762207,0.062143772798034284,0.06404881197796011,0.060181759021491886,0.062368206664110026,0.06106058490998565
0.4850001335144043,black.png,0.0480272827180961,0.06395922618618323,0.06379724309411562,0.06516861202342654,0.06000775069090732,0.057940862529380625,0.06173122665062268,0.05890397684621535,0.0608622131779448,0.052928416780044646,0.06280290339027683,0.06214055414683272,0.06404579449245865,0.060219578173110265,0.06236353514951887,0.06105276179942629
0.4850001335144043,black.png,0.04798988824962237,0.06394087540398542,0.06378025576832959,0.06515133412496259,0.05998823761799784,0.0579262221367624,0.061711110080612905,0.05889217512514295,0.060828730264750754,0.05285800878501043,0.06280294809376574,0.06214283402476716,0.06404579449245865,0.06019188436173014,0.062365457399542024,0.061057232148317354
0.4850001335144043,black.png,0.04797956174368402,0.06396072375306174,0.06381067649253326,0.06518077137241023,0.06002020061256893,0.05794640576200554,0.061746492892085655,0.0589088048230177,0.060867063506491605,0.05309853590709399,0.06283091012607933,0.06216983493206917,0.06407460589106154,0.060225479033646466,0.06239379941151135,0.06108445657306392
0.4850001335144043,black.png,0.04801881140694754,0.06396787631128745,0.06380761430354288,0.06517976554390974,0.06001414328982154,0.05795532410804321,0.061738066284426005,0.058918728997555854,0.06086751054138071,0.052822402456093126,0.06281322989621518,0.06215289230977205,0.06405609864665254,0.06022746833890299,0.06237444280081306,0.06106442941003196
0.4850001335144043,black.png,0.04800352281374011,0.06396387534902993,0.06380911187042139,0.06517931850902063,0.060015506746233314,0.057949244433551365,0.06174213430191687,0.05890978829977373,0.060853920680751884,0.0530581239531188,0.06283821914651622,0.06217899914729585,0.06408171374579832,0.06021544310038603,0.062402360129637735,0.061094894837724546
0.4850001335144043,black.png,0.048068700500571784,0.06399514543952292,0.06383477167305608,0.0652059394366669,0.060040920679679,0.05797854757053227,0.06176466486032782,0.05893665509660901,0.06090014408828546,0.05298270916732659,0.06284016374828383,0.062178775629851295,0.06408292073999891,0.060255251557260935,0.06240115313543715,0.06109022332313339
0.4850001335144043,black.png,0.04805625057891018,0.0639803038812046,0.06381711379493639,0.0651886838899474,0.06002248049050337,0.05796437656454761,0.061747543424075055,0.05892717795695996,0.060864962442512806,0.052898420738985624,0.06283855442268305,0.06217866387112902,0.06408113260044249,0.06022621664121349,0.062400884914503685,0.061091989110945356
0.4850001335144043,black.png,0.04804523116889371,0.06399999576806972,0.0638449640685277,0.06521512600363803,0.06005332589785169,0.057980827448466714,0.06177937230817942,0.058942198329233926,0.060901641655163964,0.05313751734942405,0.06286571179219624,0.06220351901096332,0.06410887111531152,0.06025733026949528,0.06242739408342768,0.06111717952694649
0.4850001335144043,black.png,0.04804371125027075,0.06400028634074764,0.06384078429231456,0.0652132931605927,0.0600476709065045,0.05798654949504727,0.061771906825531346,0.05895417886426197,0.06090300511157574,0.05286934111944927,0.06284921620478823,0.062186866961344116,0.06409011800171352,0.06026032540325229,0.06240803747272938,0.06109746528833691
0.4850001335144043,black.png,0.04790792440270476,0.06400207448030407,0.06384002433300308,0.0652099403989244,0.06004876614198281,0.057976155933875555,0.0617731808749653,0.058941304259455714,0.06088022868397578,0.05306608117414489,0.0628659353096408,0.06220405545283025,0.06410719473447737,0.060239962964053505,0.0624272823247054,0.06111874414905836
0.4850001335144043,black.png,0.047935439400129246,0.06402165460844692,0.06385837511520089,0.0652292970096227,0.0600678768834921,0.05799642896609652,0.06179032466296252,0.05896128671899876,0.060921400597262455,0.05296860521657529,0.06286273901018369,0.062199450993472453,0.06410346199315334,0.06027626219704892,0.06242147087114702,0.06110991520999851
0.4850001335144043,black.png,0.04793233250764996,0.0639996604919029,0.06383501754224509,0.06520589473317799,0.06004199356341285,0.05797713941063159,0.06176334610740496,0.05894564049788004,0.060878641710119454,0.05285633240417628,0.06285230074552306,0.06219135966197963,0.06409244258313687,0.060239158301253114,0.062412932504765095,0.06110370142503994
0.4850001335144043,black.png,0.04792714690293633,0.06401669252117784,0.0638554693884217,0.06522493841945391,0.06006434530786816,0.05798965638752656,0.061786435459427295,0.05895256953866119,0.06090814601280046,0.05307806170917293,0.06287264083297739,0.06221098449361139,0.06411459316189208,0.06026327583352039,0.06243421136548655,0.06112413091947209
0.4850001335144043,black.png,0.047970397528457345,0.06401034462575253,0.06384820507147372,0.06522017749788493,0.060054130560652084,0.05799432790211772,0.061776198360466765,0.0589606161666651,0.06090794484710036,0.052789120708599174,0.0628522336902897,0.062191627882913096,0.06409302372849271,0.06026419225504306,0.06241275369080945,0.06110144389884995
0.4850001335144043,black.png,0.04794212257172138,0.06400667893966186,0.06384534404818344,0.0652149918931713,0.06005209655190665,0.05798371082350145,0.06177588543604439,0.058945819311835686,0.06088655422765663,0.05299612021399978,0.06286960099573147,0.06221047040348892,0.06411184389732408,0.06024492505132258,0.06243371962710853,0.06112489087878357
0.7660000324249268,black.png,0.04799455976421353,0.06402259338171404,0.06386322544374769,0.06523477318701425,0.06007071555503792,0.05800476616677835,0.06179437032870893,0.05896571236440091,0.06092882137642162,0.05291940902702916,0.0628671870073303,0.06220608946157568,0.06410884876356707,0.06028193954014057,0.0624283328566948,0.06111648662286837
0.7660000324249268,black.png,0.04800095236312775,0.06400267797740436,0.0638426171353599,0.06521514835538249,0.06004883319721618,0.057988248227625876,0.061773002061009656,0.0589536647741395,0.06088809649802405,0.05281706038916831,0.06285873804792619,0.06219904866207226,0.06410017628671841,0.06024818840601306,0.06242113559498019,0.06111192686699949
0.7670001983642578,black.png,0.048000259459049635,0.0640174077770004,0.06386083380709097,0.06523242625384644,0.06007029087189327,0.05799660778005216,0.06179542086069833,0.05896050440794282,0.06091536562625952,0.05304945147627014,0.06287892167316933,0.06221699711286987,0.06412024815323927,0.06027031663302381,0.06244049220567849,0.06113038940791957
0.7670001983642578,black.png,0.04801532453481251,0.0640144573467323,0.06385390476630982,0.065227642980533,0.0600628253892452,0.057999111175431155,0.06178612253500492,0.05896705346906823,0.06091690789662694,0.05276790890311109,0.06286086146364944,0.06219824399927187,0.06410055626637415,0.06027083072314628,0.062419369807168223,0.061108238829164364
0.7670001983642578,black.png,0.04795349960964913,0.06401224452403123,0.06385032848719698,0.06522160800953007,0.06006211013342263,0.05798619186713599,0.06178516140999334,0.05895183193109416,0.06089173983237026,0.05297591423701217,0.06287592653941232,0.062214113737835135,0.06411524136248128,0.06024845662694652,0.062436558298654354,0.061128377750918596
0.7670001983642578,black.png,0.047982489822207666,0.06402878481492816,0.06386749462693865,0.06524000349521679,0.06008034915689816,0.058005973160978934,0.06180049470668968,0.058971255597025825,0.06093152593750071,0.05291730796305036,0.0628728867021664,0.06220964338894407,0.06411124040022378,0.060284442935519565,0.06243067978986261,0.061120241715936864
0.7670001983642578,black.png,0.04796827411273409,0.06401047873621926,0.06384646163540621,0.06521952929729573,0.060058220929887406,0.05798994696020448,0.0617771818372228,0.05895833628873066,0.06089384089634906,0.0528056609994961,0.0628661811788298,0.062205105984819646,0.0641056301123655,0.06025169762989254,0.06242620944097155,0.061117850079280146
0.7680001258850098,black.png,0.04794755404562402,0.06403028238180666,0.06386668996413826,0.06523913177718303,0.060082181999943494,0.05800083225975421,0.0618032886747466,0.058964684184155965,0.06091934423677257,0.05305021143558162,0.06288502369940563,0.062223680284462006,0.06412655134517567,0.06027346822899201,0.062446460121448055,0.06113749726265636
0.7680001258850098,black.png,0.04797855591518353,0.06402435916952601,0.06385868803962326,0.06523423674514732,0.06007114023818257,0.05800653195459032,0.061790861104829446,0.058976016518594805,0.06091704200709367,0.0527898583161662,0.06286289547239488,0.062203161383052034,0.06410305966175314,0.060274161133070124,0.06242310254849226,0.06111429615191175
0.7680001258850098,black.png,0.04793635582165191,0.06401995587586831,0.0638533683244429,0.06522741946308845,0.06006644637184696,0.05799446201258445,0.061787485991416695,0.05895999031782035,0.06089513729752747,0.052998221277978576,0.0628787875627026,0.06222146746176093,0.06412027050498373,0.06025328460374887,0.062443085008035304,0.06113658084113369
0.7680001258850098,black.png,0.0479731691447698,0.06403861958248849,0.06387227790025209,0.06524811717845407,0.06008549005812288,0.058017059626228766,0.06180726728525964,0.05897970455642993,0.060935638658480486,0.052945180588386126,0.06287577007720113,0.062217779423925805,0.06411709655727107,0.06028938267104419,0.062438324086466324,0.06112931652418572
0.7690000534057617,black.png,0.04796161329288641,0.06401928532353465,0.0638504178941748,0.06522670420726588,0.06006119371189996,0.05800040757660956,0.06178218862798079,0.05896917688479148,0.06089712660278399,0.05283637229637769,0.06286600236487416,0.06221051510697783,0.06410750765889975,0.06025603386831687,0.06243092565905162,0.06112448854738337
0.7690000534057617,black.png,0.04793260072858342,0.06403654087025415,0.0638685675106725,0.06524373623654083,0.0600824278691325,0.05800995177149198,0.06180418274452481,0.058974295434271747,0.06092247348099631,0.05306225902584303,0.06288453196102761,0.06222765889497505,0.06412719954576487,0.060275010499359426,0.0624504387319611,0.0611422805359698
0.7690000534057617,black.png,0.047960830981830474,0.06403135526554052,0.06386061028964642,0.06523801418996027,0.06007225782540534,0.05801165050407058,0.06179264924438587,0.0589804198122525,0.060921378245518,0.05278708669985374,0.06286264960320587,0.06220584359238667,0.06410451252514274,0.06027485403714824,0.06242725997296095,0.06111724658217985
0.7690000534057617,black.png,0.04792699044072514,0.06402529794279313,0.06385683284483347,0.06523095103871239,0.060068458028847936,0.0579988876579866,0.06178998938679569,0.05896640526847902,0.060901731062141785,0.05299652254539997,0.06288111214412595,0.06222562488622962,0.06412386913584103,0.06025809022880676,0.0624491870342716,0.06114225818422534
0.7690000534057617,black.png,0.04797426438024811,0.06404389459417995,0.06387690471135433,0.06525169345756691,0.06008810521222415,0.05802056885010825,0.061808720148649236,0.058989405213523534,0.06093939375154898,0.052938810341216364,0.0628756359667344,0.06221775707218135,0.0641165824671486,0.060289829705933294,0.06244071572312304,0.061130478814897395
0.7700002193450928,black.png,0.04795850640040712,0.06402145344274682,0.0638517142953532,0.06522603365493222,0.06006094784271095,0.05799732303587473,0.061780154619235354,0.058968729849902375,0.06090056877143011,0.05281741801707959,0.0628671870073303,0.062209397519755065,0.06410556305713214,0.060254156321782625,0.06243161856312973,0.06112341566364952
0.7700002193450928,black.png,0.047942726068821676,0.06403893250691087,0.06387124972000714,0.06524306568420717,0.0600824278691325,0.058005682588301015,0.06180194757007928,0.05897290962611552,0.06092618387057589,0.05305349714201655,0.0628874376878068,0.06222815063335307,0.06412550081318627,0.06027536812727071,0.06245162337441723,0.06114221348073643
0.7700002193450928,black.png,0.047970486935435167,0.06403519976558683,0.06386528180423758,0.06523870709403838,0.06007306248820573,0.05800840950112456,0.06179141989844083,0.05897912341107409,0.06092732380954311,0.052779978845116954,0.06286792461489732,0.062208682263932495,0.06410419960072036,0.06027919027557257,0.06242942809217311,0.061119191183947465
0.7700002193450928,black.png,0.04793056671983799,0.06402976829168419,0.06386105732453552,0.06523177805325724,0.060069083877692685,0.05799589252422959,0.061787821267583524,0.058963208969021914,0.06090342979472039,0.0529833573679158,0.06288399551916068,0.06222566958971853,0.06412172336837332,0.06025737497298419,0.06244820355751557,0.06114022417547991
0.7700002193450928,black.png,0.04797113513602437,0.06404490042268043,0.06387889401661086,0.06525122407093335,0.060086987625001385,0.05801627731517283,0.0618100389015721,0.05898674535593335,0.060942120664372525,0.052945895844208696,0.06288082157144803,0.062220931019894,0.06411930937997215,0.06029465768273564,0.06244268267663511,0.06113193167828699
0.7700002193450928,black.png,0.0479691681825123,0.06402319687881433,0.06385643051343327,0.0652290958439226,0.0600615736915557,0.05800002759695382,0.061785250816971164,0.05897304373658225,0.060902781594131185,0.0528349194329881,0.06286969040270929,0.062212347950023165,0.06410817821123341,0.06025961014742972,0.06243316083349715,0.06112477912006129
0.7700002193450928,black.png,0.04796950345867913,0.06403745729177682,0.06387426720550861,0.06524496558248587,0.060080371508642615,0.058009772957536336,0.0618051885730253,0.05897657531220619,0.060926742664187274,0.053079715738262624,0.0628888905511964,0.06223101165664335,0.06412766893239844,0.06027961495871722,0.06245262920291772,0.061144091027270676
0.7700002193450928,black.png,0.04801641977029082,0.0640325622597411,0.06386910395253943,0.06524288687025152,0.06007181079051623,0.05801723844018441,0.061793967997308734,0.05898761707396711,0.06093081068167814,0.05281399820017793,0.06287065152772087,0.062213487888990386,0.06410873700484479,0.06028370532795254,0.06243280320558586,0.06112350507062734
0.7700002193450928,black.png,0.04798541790073131,0.06402708608234955,0.06386394069957026,0.06523622605040384,0.06006749690383636,0.05800474381503389,0.061791397546696374,0.058971546169703744,0.06090481560287662,0.05302604919982543,0.0628842413883497,0.06222841885428653,0.06412357856316311,0.06025871607765151,0.062449365848227245,0.06114270521911445
0.7700002193450928,black.png,0.04802746153205174,0.06404257584125708,0.06388101743233411,0.0652556497163355,0.06008569122382298,0.05802477097806585,0.06181249759346218,0.0589953731292931,0.06094690393768596,0.052984027920249456,0.06288305674589356,0.06222524490657388,0.06412313152827401,0.06029584232519177,0.06244590132783667,0.06113608910275568
0.7700002193450928,black.png,0.0480116812004663,0.06402375567242571,0.06385955975765702,0.06523432615212514,0.06006320536890094,0.05800697898947942,0.06178735188094996,0.058978251693040336,0.06090971063491233,0.052853270215185905,0.06287371371671124,0.06221751120299234,0.064112134470002,0.0602601689410411,0.06243767588587712,0.0611300764834972
0.7700002193450928,black.png,0.04800423806956268,0.06404067594297838,0.06387893872009977,0.0652524981203673,0.0600859817965009,0.058016634943084115,0.06180959186668299,0.058985448954754945,0.06093195062064536,0.053113243354945584,0.0628928915134539,0.0622352361363454,0.06413187106035603,0.06027948084825049,0.06245723366227551,0.06114950014942886
0.7700002193450928,black.png,0.048051735526530207,0.06403468567546436,0.06386995331882873,0.06524644079761992,0.06007643760161848,0.058018110158218165,0.06179837129096643,0.05899280267868074,0.060934208146835346,0.052847883444772176,0.06287181381843254,0.06221384551690167,0.06410934050194508,0.06028236422328522,0.062434032551530905,0.061125047340994755
0.7700002193450928,black.png,0.04802379584596107,0.06402773428293876,0.0638651700455153,0.0652396458673055,0.060074314185895226,0.058004497945844884,0.06179555497116506,0.05897822934129588,0.060912348140758056,0.053047082191357876,0.06288944934480778,0.06223224100258839,0.06412766893239844,0.060260817141630306,0.06245470791515206,0.061148002582550355
0.7850000858306885,black.png,0.04804451591307114,0.0640464203413034,0.06388459371144696,0.06526054474837122,0.06009648711639489,0.05802369809433199,0.06181506804407454,0.05899798828339437,0.060953542405789186,0.05300121641173559,0.06288781766746254,0.062228061226375246,0.0641249867230638,0.0602953282350693,0.06245025991800546,0.061140045361524266
0.7850000858306885,black.png,0.048002069950350515,0.06402820366957232,0.06386313603676987,0.06523924353590531,0.06007433653763968,0.05800561553306765,0.06178969881411777,0.05898238676576457,0.06091688554488248,0.0528753760904522,0.06287872050746923,0.06222023811581589,0.06411544252818138,0.06026193472885307,0.062442705028379564,0.06113401039052133
0.7850000858306885,black.png,0.0479805228686956,0.06404554862326964,0.06388197855734569,0.06525667789658045,0.06009659887511717,0.05801419860293849,0.06181348107021822,0.058989673434457,0.06094153951901669,0.053137629108146324,0.0629011393071579,0.062241025238159324,0.06413844247322589,0.060284353528541744,0.062465414400746155,0.06115613861753209
0.7850000858306885,black.png,0.048014408113289844,0.064040117149367,0.06387665884216533,0.0652535486523567,0.06008877576455781,0.05801831132391826,0.061803623950913426,0.05899693775140497,0.060942545347517176,0.05285353843611937,0.06287816171385785,0.062217690016947984,0.06411412377525852,0.06028341475527462,0.06244040279870067,0.06112846715789642
0.7850000858306885,black.png,0.04797938292972838,0.06403249520450774,0.06386888043509488,0.06524371388479637,0.06008200318598785,0.058002106309188166,0.06180094174157879,0.058977782306406774,0.06091898660886128,0.053056045240884454,0.06289467965301032,0.06223581728170124,0.06413211692954504,0.0602620688393198,0.06246009468556579,0.06115126593724083
0.7850000858306885,black.png,0.04802024191859268,0.06405238825707296,0.06389123217955019,0.06526727262345226,0.060103706729853955,0.05802767670484504,0.061821482994733216,0.05900438088230859,0.06096109729541508,0.05302019304277814,0.06289467965301032,0.06223434206656719,0.06413142402546693,0.060301251447349956,0.06245761364193125,0.06114637090520512
0.7850000858306885,black.png,0.048013648153978364,0.06403227168706319,0.06386919335951725,0.06524534556214161,0.06007958919758668,0.05801169520755949,0.0617959349508208,0.05899108159435768,0.06092446278625283,0.05288096402656603,0.06288457666451652,0.062226451900774464,0.06412049402242828,0.06026747796147799,0.06244871764763804,0.06113935245744615
1.2320001125335693,black.png,0.04800533330504099,0.0640498178064606,0.06388892994987129,0.06526277992281675,0.060101985645530896,0.05802123940244191,0.061819158413309865,0.05899313795484757,0.06094719451036388,0.05314435698322737,0.06290549789732669,0.06224665787776206,0.06414351631921725,0.06028728160706539,0.062470801171159884,0.06116089953910107
1.2320001125335693,black.png,0.048046460514838754,0.06404530275408063,0.06388387845562439,0.06526034358267112,0.06009510130823866,0.058029196623468,0.061811961151595256,0.0590065266497763,0.060950122588887524,0.05286753062814839,0.06288466607149434,0.06222634014205219,0.06412062813289501,0.06029313776411268,0.06244757770867082,0.061137139634745076
1.2320001125335693,black.png,0.048019124331369914,0.06403557974524257,0.06387665884216533,0.06524943593137693,0.06008785934303514,0.058014153899449576,0.061803579247424516,0.058987393556522556,0.06092294286762987,0.0530537206594611,0.06289892648445683,0.062241874604448626,0.0641350897115576,0.06026689681612215,0.06246492266236814,0.06115674211463238
1.2320001125335693,black.png,0.04805005914569606,0.06405462343151849,0.06389684246740847,0.06527058068163165,0.06010942877643451,0.058035835091571224,0.06182526043954616,0.05900800186491035,0.0609632877663717,0.053028798464393435,0.06289758537978951,0.06223879006371379,0.06413453091794621,0.0603039336566846,0.06246181576988885,0.06115017070176252
1.2320001125335693,black.png,0.04804304069793709,0.06403374690219724,0.06387330608049703,0.06524749132960932,0.06008423836043338,0.058017774882051336,0.061800338244478496,0.05899313795484757,0.06092446278625283,0.052890128241792705,0.06288569425173929,0.06222879883394227,0.06412181277535114,0.060268483789978476,0.062451265746505946,0.0611412300039804
1.2320001125335693,black.png,0.048029450837308266,0.06405055541402763,0.06389389203714037,0.06526586446355158,0.060106612456633145,0.05802798962926741,0.061822734692422714,0.0589985247252613,0.06094882618770912,0.05315497406184364,0.06290963297005092,0.06225215640689807,0.06414633263901862,0.060289203857088546,0.06247605383110688,0.06116561575718114
1.2320001125335693,black.png,0.04806096679699025,0.06405051071053872,0.06389053927547207,0.06526505980075119,0.06010064454086358,0.05803534335319321,0.06181542567198583,0.05901008057714469,0.06095325183311127,0.05287948881143198,0.06288900230991867,0.06223150339502136,0.06412427146724123,0.060294165944357624,0.06245361267967375,0.06114118530049149
1.2320001125335693,black.png,0.04802417582561681,0.06404105592263412,0.06388316319980182,0.06525547090237986,0.060093983721015896,0.05802061355359716,0.06180970362540527,0.05899275797519183,0.06092786025141004,0.053069948025935655,0.06290480499324858,0.06224842366557403,0.06414067764767142,0.06027022722604599,0.062472410496760666,0.061162620623424126
1.2320001125335693,black.png,0.04804932153812903,0.06406007725716559,0.06390292214190031,0.06527657094914567,0.0601146367328926,0.05804086423407367,0.06182990960239287,0.05901247221380141,0.06096786987398504,0.05303914732207624,0.06290310626066997,0.062244445055060986,0.0641376378104255,0.06030473831948499,0.062467850740891784,0.06115484221635368
1.2320001125335693,black.png,0.04803535169784447,0.06404125708833422,0.06388108448756748,0.06525502386749076,0.060090519200625324,0.05802436864666565,0.06180250636369066,0.0590002234578399,0.060932598821234564,0.052896945523851574,0.06289360676927647,0.06223657724101272,0.06412789244984299,0.060273870560392205,0.06245940178148768,0.061148382562206095
1.2320001125335693,black.png,0.0480283332500855,0.064056366867586,0.06389997171163221,0.06527283820782163,0.060112938000314,0.058032638792114115,0.061829306105292574,0.05900661605675412,0.060953542405789186,0.053165099402081896,0.06291443859510881,0.06225582209298874,0.064149640697198,0.06029090258966715,0.06248101591837596,0.061168812056638246
1.2320001125335693,black.png,0.048068834611038516,0.06405285764370652,0.06389266269119533,0.06526836785893057,0.06010415376474306,0.05803619271948251,0.061817057349331066,0.05901381331846873,0.06095765512676896,0.05288854126793638,0.0628926903477538,0.06223380562470026,0.06412684191785359,0.0602961776013586,0.062457032496575415,0.06114335341970365
1.2320001125335693,black.png,0.04802710390414046,0.06404342520754638,0.06388551013296963,0.06525918129195944,0.06009820820071795,0.058020971181508445,0.06181350342196267,0.05899704951012725,0.060930743626444774,0.053077569970794915,0.06290768836828331,0.062250189453386,0.06414257754595012,0.06027150127547994,0.06247486918865075,0.06116440876298055
1.2320001125335693,black.png,0.048051266139896645,0.06406229007986666,0.06390555964774604,0.06528023663523634,0.060118570639916734,0.05804227239397435,0.06183281532917206,0.05901806014991524,0.06097267549904293,0.053060135610119775,0.06290775542351668,0.062248781293485315,0.06414201875233874,0.06030835930208675,0.062472410496760666,0.061159580786178204
1.2320001125335693,black.png,0.04804572290727173,0.06404320169010183,0.06388365493817984,0.06525853309137024,0.06009369314833798,0.05802559799261069,0.061808206058526764,0.059005073786386704,0.06093490105091346,0.05291399990487097,0.06289552901929962,0.06223852184278033,0.06412970294114387,0.06027585986564873,0.06246148049372202,0.06115032716397371
1.2320001125335693,black.png,0.04803561991877793,0.06405855733854263,0.06390321271457823,0.06527601215553429,0.060114703788125966,0.05803359991712569,0.06183084837565999,0.05900867241724401,0.06095638107733501,0.053178532800499535,0.06291781370852156,0.06225993481396852,0.06415290405188848,0.06029313776411268,0.06248463690097772,0.0611728353706402
1.2320001125335693,black.png,0.04805175787827466,0.06405692566119739,0.06389800475812014,0.0652735087601553,0.060107327712455715,0.05803932196370625,0.06182170651217777,0.05901676374873683,0.0609622372343823,0.05289120112552656,0.06289682542047803,0.06223852184278033,0.06413008292079961,0.06029794338917057,0.062461122865810736,0.06114726497498333
1.2320001125335693,black.png,0.048010787130688085,0.06404894608842684,0.06388995813011623,0.06526315990247249,0.06009981752631873,0.05802336281816516,0.061814106919062965,0.05899798828339437,0.060935124568358014,0.0530709762061806,0.06291195755147427,0.06225474920925488,0.0641464891012298,0.06027223888304697,0.06247942894451963,0.06116769446941548
1.2320001125335693,black.png,0.04804668403228331,0.06406839210610296,0.06391197459840471,0.06528656217891719,0.06012259395391869,0.058045491045175916,0.06183822445133024,0.059021457615072444,0.06097891163574596,0.05306301898515451,0.06291341041486387,0.06225452569181033,0.06414785255764158,0.0603110862149103,0.06247878074393043,0.061164095838558176
1.2320001125335693,black.png,0.048044404154348866,0.06404816377737091,0.06389074044117217,0.0652659538705294,0.060099281084451804,0.05803033656243522,0.06181352577370713,0.05900795716142144,0.060942455940539354,0.05290783082340131,0.06290129576936909,0.06224442270331653,0.0641350897115576,0.060277871522649705,0.062467604871702775,0.06115502103030932
1.2320001125335693,black.png,0.048034971718188726,0.06406123954787726,0.06390862183673642,0.06528209183002613,0.060119755282372865,0.05803775734159438,0.061835922221651345,0.059010974646922905,0.06096324306288279,0.05318369605346871,0.06292353575510212,0.062266014488460364,0.06415779908392419,0.060297161078114635,0.0624906495202362,0.06117909385908769
1.2320001125335693,black.png,0.04807837880592093,0.0640605242920547,0.06390506790936802,0.06528144362943693,0.0601137873666033,0.05804537928645364,0.06182595334362428,0.059024206879640446,0.06097216140892046,0.05290488039313321,0.06290473793801521,0.062246881395206614,0.06413730253425867,0.060305855906707756,0.06246916949381465,0.06115602685880981
1.2320001125335693,black.png,0.048040023212435626,0.06405140478031693,0.0638982282755647,0.06527286055956609,0.06010819943048947,0.05803029185894631,0.06182208649183351,0.05900708544338768,0.06094294767891737,0.05307381487772642,0.0629179478189883,0.062261097104680196,0.06415178646466571,0.060278340909283266,0.06248555332250039,0.061174534103218804
1.2320001125335693,black.png,0.04807310379422948,0.06407024730089275,0.06391850130778566,0.06529474291738784,0.06012997002958894,0.0580509001673341,0.06184432647756654,0.05902722436514191,0.06098530423466018,0.05306874103173507,0.06291931127540007,0.0622608959389801,0.06415276994142174,0.06031622711613502,0.06248459219748881,0.061170913120617045
1.2470002174377441,black.png,0.04807238853840691,0.06405100244891673,0.06389581428716352,0.06527279350433272,0.06010495842754345,0.05803422576597044,0.06181748203247572,0.05901334393183517,0.06094744037955289,0.05290854607922388,0.06290529673162659,0.06224855777604076,0.06413797308659233,0.06028256538898532,0.06247111409558226,0.06115940197222256
1.2470002174377441,black.png,0.048063939579002804,0.0640620218589332,0.06391222046759372,0.0652874115452065,0.06012344332020799,0.05803903139102833,0.06183724097457421,0.05901318746962398,0.060967556949562664,0.05317790695165479,0.06292755906910408,0.06226988134025113,0.06416063775547001,0.060298211610104034,0.062493801116204395,0.06118202193761133
1.2470002174377441,black.png,0.04810656435567908,0.06406396646070081,0.0639094264995368,0.06528729978648422,0.06011872710212792,0.058046921556821056,0.061830066064604054,0.05902534681860767,0.060975268301399745,0.05290215348030966,0.06290717427816084,0.062249407142330064,0.06413893421160391,0.06030529711309637,0.06247066706069315,0.06115736796347713
1.2470002174377441,black.png,0.04807504839599709,0.06405285764370652,0.06389985995290993,0.06527536395494508,0.060109518183412335,0.05802928603044582,0.06182161710519995,0.059003732681719386,0.06094527226034072,0.053067288168345474,0.06292018299343383,0.062263824017503744,0.06415232290653264,0.0602776256534607,0.06248649209576751,0.061175383469508106
1.2470002174377441,black.png,0.048113158120293396,0.06407333184162758,0.0639216305520094,0.06529831919650068,0.06013193698310101,0.05805134720222321,0.06184432647756654,0.0590261291296636,0.060986310063160666,0.05307153499979198,0.06292092060100085,0.06226263937504761,0.06415270288618838,0.06031564597077918,0.062485039232377915,0.061170957824105955
1.2470002174377441,black.png,0.0481161085505615,0.06405111420763901,0.0638967754121751,0.06527451458865578,0.06010569603511048,0.05803321993746995,0.06181716910805334,0.059011734606234385,0.06094934027783159,0.052904366303010736,0.06290735309211648,0.0622510388196753,0.06413857658369262,0.06028272185119651,0.06247296929037205,0.0611599831175784
1.2470002174377441,black.png,0.04809842832069735,0.0640666710217799,0.0639163778920624,0.0652925077429423,0.060128092483054695,0.05804187006257416,0.06184057138449805,0.059016160251636536,0.06097035091761958,0.0531826008179904,0.06293126945868366,0.06227455285484229,0.06416363288922702,0.060301452613050054,0.06249833852032882,0.06118528529230181
1.2470002174377441,black.png,0.04819058456308658,0.06407158840556007,0.063915081490884,0.06529393825458744,0.060125902012098074,0.058052017754556866,0.06183686099491847,0.05902885604248715,0.060983940778248404,0.052928081503877816,0.06291555618233158,0.06225892898546803,0.06414675732216327,0.06031399194168949,0.062480993566631504,0.06116570516415896
1.2470002174377441,black.png,0.048165081222663074,0.06406586635897951,0.06391177343270461,0.0652887079463849,0.06012324215450789,0.0580422500422299,0.06183534107629551,0.05901779192898177,0.06095966678376994,0.05312079824457148,0.0629335493366181,0.06227904555547781,0.06416553278750572,0.0602940765373798,0.06250301003491998,0.06119011326910415
1.2470002174377441,black.png,0.04818104036820416,0.0640921296587145,0.06393978016850711,0.06531760875196561,0.06015238882927761,0.058070636757688136,0.06186404071617612,0.05904541868512853,0.06101120990648388,0.05314759798617339,0.06294392054604536,0.06228778508755983,0.0641757475347218,0.0603399423170021,0.06251157075304636,0.061195768260451346
1.2470002174377441,black.png,0.04817339607160045,0.0640805291033422,0.06392507272065552,0.06530395183610342,0.06013596029710296,0.058062791295384324,0.06184714279736791,0.059040836577515195,0.060980118629946546,0.05299509203375483,0.06293542688315235,0.06228179482004581,0.06416662802298403,0.06031388018296721,0.06250403821516493,0.061189912103404055
1.2470002174377441,black.png,0.048149502056777725,0.06409210730697004,0.06394585984299896,0.06532270494970142,0.06015896024214747,0.058071642586188625,0.06187148384707974,0.05904689390026258,0.06100387853430254,0.053277551028436544,0.0629630536392991,0.06230846045118099,0.06419472416576436,0.06033249918609848,0.06253267079981217,0.061217695321762
1.2470002174377441,black.png,0.048192171536942906,0.06410609949899906,0.06395198422097971,0.06533148918527236,0.06016421290209447,0.05808829463580783,0.0618728026000026,0.059066742249338895,0.061022028150800246,0.053019366028233296,0.06295138602869343,0.062296256398708394,0.06418191661619146,0.06034928534618442,0.06251867860778315,0.061201289141331806
1.2630000114440918,black.png,0.04816034265283855,0.06409673411807229,0.063947335058133,0.0653244707375134,0.06015992136715905,0.05807539767925712,0.06187099210870172,0.05905275005730987,0.06099701654875476,0.05319142975705025,0.06296942388646887,0.062315590657662234,0.06420096030246739,0.06032693360172911,0.06253980100629342,0.06122422203114295
1.2630000114440918,black.png,0.04819463022883299,0.06412529964748617,0.06397619116022482,0.06535381857798321,0.06018978329775134,0.0581037620429709,0.06190029524568263,0.05907981801984525,0.06104764324994603,0.05320421495487868,0.06297932570926257,0.06232327965775486,0.0642107056630499,0.060371257110983984,0.06254715473021921,0.06122833475212273
1.2630000114440918,black.png,0.048196552478856146,0.06411577780434821,0.0639613943053954,0.06534002755165429,0.06017348887604342,0.05809517897310006,0.06188386671350798,0.05907456535989825,0.06101773661586483,0.05304533875529036,0.06297110026730302,0.06231704352105183,0.06420254727632371,0.060346625488594235,0.06254009157897134,0.061223104443920186
1.2640001773834229,black.png,0.04817949809783675,0.06412726660099824,0.0639815555788941,0.06535853479606328,0.06019512536467616,0.05810438789181565,0.061908364225430994,0.05908073444136792,0.06103968602891994,0.05332862476451692,0.06299798941588276,0.06234332917253127,0.064229659942348,0.06036502097428095,0.06256800890779601,0.06125151351112288
1.2640001773834229,black.png,0.04822185465357955,0.06413985063312658,0.06398573535510724,0.06536570970603343,0.06019722642865496,0.05812010116816773,0.06190682195506358,0.05909924168577691,0.06105642748551696,0.05307839698533976,0.06298464542444293,0.06233023105028046,0.06421537717764106,0.0603827012041451,0.06255245209365512,0.061234973220225954
1.2640001773834229,black.png,0.048189310513652626,0.06413008292079961,0.06398092973004935,0.06535933945886367,0.060192241989641425,0.058109260572106906,0.061904542077129136,0.05908904929030529,0.06103018653752643,0.05324388930128685,0.06300143158452888,0.062348693591200544,0.06423285624180511,0.06036023770096752,0.0625723674979648,0.061258062572248285
1.2640001773834229,black.png,0.04822020062448986,0.06415578742692321,0.06400737184373997,0.06538689915977706,0.060219622876599176,0.058134987429974964,0.06193333112398757,0.05911444087200652,0.061078041622405245,0.05326867738588779,0.06300878530845468,0.062354169768592094,0.06424065700062001,0.060402683663688145,0.06257775426837853,0.061260163636227084
1.2650001049041748,black.png,0.04822116174950144,0.06414429863027318,0.06399087625633196,0.06537125293865835,0.0602005568385788,0.05812510795892572,0.06191314749874443,0.05910766829343656,0.06104804558134622,0.053106336665908895,0.06299997872113929,0.062347397190022136,0.06423106810224868,0.060377582654664835,0.0625698193990969,0.06125361457510168
1.2850000858306885,black.png,0.04819997229575781,0.0641555415577342,0.06401141750948638,0.06539009545923417,0.0602226627138451,0.0581340710084523,0.061937645010667446,0.05911432911328424,0.06106983853219015,0.053382470116909754,0.0630271807941414,0.06237370519324603,0.06425903013456227,0.06039622400954056,0.06259834022502186,0.06128180012485983
1.2850000858306885,black.png,0.048234796313619176,0.064168393810796,0.0640163125415221,0.06539762799711561,0.060226104882491215,0.05815016426446012,0.06193775676938972,0.05913221050884849,0.06108977628824428,0.05312497802078462,0.06301578140446919,0.06236199287915145,0.0642463119919672,0.06041432892254936,0.06258475036439304,0.06126622095897447
1.2850000858306885,black.png,0.04820368268533739,0.06415958722348061,0.06401269155892034,0.06539217417146852,0.06022241684465609,0.05813968129631058,0.06193594627808884,0.059119894697653615,0.06106320006408692,0.05328175315639414,0.06303256756455512,0.062380120143904705,0.06426468512590947,0.06039043490772664,0.06260493398963618,0.06128870681389652
1.2850000858306885,black.png,0.048238082020054106,0.06418683399997163,0.06404029596332264,0.06542089616309359,0.06025136235372571,0.05816572107860101,0.061966746981948255,0.05914555450028831,0.06111317856468899,0.05331279972944256,0.0630419329454819,0.062387496219574956,0.06427389404462505,0.06043355142278092,0.06261208654786188,0.06129268542440956
1.2850000858306885,black.png,0.048240317194499636,0.06417494287192141,0.06402295100962532,0.06540440057568557,0.0602317151703495,0.05815510399998474,0.0619446187549375,0.05913782079670677,0.06108228845385175,0.053134522215667036,0.06303156173605463,0.062378935501448574,0.06426244995146393,0.060406259942800994,0.062602274132046,0.06128437057547219
1.2850000858306885,black.png,0.04821966418262293,0.06418455412203719,0.06404311228312401,0.06542286311660565,0.06025294932758204,0.058163508255899936,0.061968311604060126,0.059144660430510095,0.06110287441049509,0.053419618716194474,0.06305885321603456,0.06240542231862811,0.06429106018436673,0.060425013056398996,0.06263083966145988,0.06131322667756399
1.2850000858306885,black.png,0.04826698282563482,0.06419919451465542,0.06404867786749338,0.06543151324170986,0.06025784435961775,0.058180272064241416,0.06197094910990585,0.05916339119236364,0.061122767463060314,0.05316326655903656,0.06304633623913959,0.062392413603355124,0.064277671489438,0.06044423555663056,0.06261581928918591,0.06129668638666706
1.2850000858306885,black.png,0.04822842606644941,0.06418640931682698,0.06404226291683471,0.06542362307591713,0.06025142940895908,0.058168649157124656,0.0619658752639145,0.05915167887826906,0.06109498424470237,0.053318745293467674,0.06306251890212523,0.062410026777985905,0.06429405531812374,0.0604208109284414,0.06263459475452837,0.061318725206699995
1.2850000858306885,black.png,0.04825768449994141,0.0642122032299284,0.06406919676890335,0.06545131688729726,0.060279257330805934,0.05819424190452598,0.061993278502616704,0.059174187084935555,0.06114435924820414,0.05335086475024995,0.06307199604177428,0.0624175816676118,0.06430304071939477,0.06046466505106271,0.06264127792612051,0.06132328496256888
1.2850000858306885,black.png,0.04826240071802148,0.0642022567036458,0.06405384112046256,0.06543730234352378,0.06026175591489743,0.058186664663155634,0.06197539710705246,0.059171706041301016,0.06111550314611234,0.05318338312904634,0.06306314475096998,0.06241071968206402,0.06429363063497909,0.06044110631240682,0.06263260544927185,0.06131718293633258
1.2850000858306885,black.png,0.04824872145041483,0.06421524306717433,0.06407608110619559,0.06545730715481128,0.060285113487853224,0.05819696881734953,0.06200020754339785,0.0591779645297485,0.061136759655089336,0.053462288196359654,0.0630920455565507,0.06243890523182216,0.06432322434463791,0.06045880889401542,0.0626616850688082,0.06134702251518041
1.2850000858306885,black.png,0.04829729179111621,0.06422952583188127,0.06408088673125348,0.06546441500954807,0.060288823877432805,0.05821169861694558,0.06200201803469873,0.05919441541366761,0.06115589274834308,0.05320356675428948,0.06307820982673286,0.062424510708392944,0.06430809221364167,0.060474164542456216,0.06264456363255544,0.06132826940158241
1.2850000858306885,black.png,0.048268279226813225,0.06421788057302005,0.06407436002187253,0.06545560842223268,0.06028176072618493,0.05819792994236111,0.06199428433111719,0.059178188047193055,0.06112688018404009,0.053347847264748484,0.06309338666121801,0.06244129686847888,0.0643240290074383,0.0604488176642439,0.06266177447578603,0.06134919063439258
1.2850000858306885,black.png,0.04829393902944792,0.06424425563147731,0.06410276908907522,0.06548547035282497,0.06031202498817742,0.058225847271185786,0.06202600145649927,0.059207290018473864,0.06117770805093146,0.05338012318374195,0.06310398138808983,0.062449790531371896,0.0643355848593217,0.060492358862442835,0.06267011167646785,0.06135475621876195
1.2850000858306885,black.png,0.04829040745382398,0.06423285624180511,0.06408629585341166,0.06547007000089526,0.06029445651703554,0.05821701833212594,0.06200615310742296,0.05920107623351529,0.06114956720466223,0.05320019164087673,0.06309475011762979,0.062442414455701645,0.06432575009176136,0.06046895658599813,0.06266175212404157,0.06134784952972526
1.7150001525878906,black.png,0.04820482262430461,0.06425295046007043,0.06410576422283223,0.06548804080343733,0.060317434110335605,0.058226562527008356,0.0620307400263238,0.059209100509774744,0.061165772219392324,0.05345991891144739,0.06311929233304171,0.06246610730482427,0.06435136519090714,0.06048234528092686,0.06268835069994338,0.06137375520154896
1.7150001525878906,black.png,0.04823582449386412,0.06425514093102705,0.06410540659492095,0.0654906559575386,0.060316093005668286,0.05823686668120225,0.06202774489256679,0.05922193041109209,0.06117916091432105,0.053185819469191965,0.06309933222524312,0.06244587897609222,0.06433042160635252,0.060494079946765894,0.0626667365630551,0.06134974942800396
1.7150001525878906,black.png,0.04820864477260647,0.06424193105005396,0.06409275550755925,0.0654759038061981,0.06030341956656213,0.0582174877187595,0.06201487028776053,0.05920022686722599,0.06114426984122632,0.05330300966537114,0.06310874230965881,0.06245687603436423,0.0643398316907682,0.060463547463839945,0.06267945470565017,0.061364546282833374
1.7150001525878906,black.png,0.048241233616022304,0.06426238289623057,0.06411611308051504,0.06550002133846537,0.06032816294767415,0.05823903480041442,0.06203903252351672,0.059220946934336056,0.061191007338882365,0.053322835662702996,0.06311607368184015,0.06246226280477796,0.06434671602806044,0.06050429469398197,0.06268519910397519,0.06136696027123455
1.7150001525878906,black.png,0.048249324947515125,0.06424552968091127,0.0640974270221504,0.06548236346034568,0.06030784521196428,0.058227613058997756,0.06201668077906141,0.05921198388480948,0.061159759600133846,0.05312184877656088,0.0631034449462229,0.062451466912206044,0.06433330498138726,0.06047834431866936,0.06267310681022487,0.06135703609669639
1.7150001525878906,black.png,0.048232605842662556,0.06425744316070595,0.06411155332464616,0.06549458986456273,0.060324810186005856,0.0582315916695108,0.0620345398228812,0.059212520326676406,0.06117051078921685,0.05338895212280179,0.06312282390866565,0.06247001886010395,0.06435322038569694,0.06048592156003971,0.06269371511861266,0.0613779349777621
1.7150001525878906,black.png,0.04826977679369173,0.06425657144267219,0.06410969812985637,0.06549599802446342,0.06032197151446003,0.05824046531205956,0.06202962243910103,0.059225149062293654,0.06118736400453615,0.05312616266324075,0.06310612715555754,0.06245262920291772,0.06433621070816645,0.060502215981747626,0.06267498435675911,0.06135647730308501
1.7150001525878906,black.png,0.0482338351886076,0.06424617788150047,0.06409917045821792,0.0654839057307131,0.06031269554051108,0.058223656800229166,0.062022894564019986,0.059207379425451685,0.061152808207608246,0.053250550121134534,0.0631158501643956,0.06246387213037874,0.06434655956584925,0.06047119176044366,0.0626879930720321,0.061371497675358974
1.7150001525878906,black.png,0.0482618419244101,0.06426537802998758,0.06412027050498373,0.06550525164666791,0.06033471200879956,0.05824272283824954,0.06204301113402976,0.059225484338460484,0.06119451656276185,0.05327044317369976,0.06311875589117479,0.06246476620015695,0.06434845946412796,0.06050556874341592,0.06268875303134358,0.06136852489334642
1.7150001525878906,black.png,0.048265284093056214,0.06424595436405592,0.06409791876052842,0.06548327988186835,0.060309901572454166,0.05822658487875281,0.062017373683139525,0.05921178271910938,0.06116306765831323,0.053064471848544105,0.06310478605089022,0.06245249509245099,0.06433395318197646,0.06047720437970214,0.0626751408189703,0.06135594086121808
1.7150001525878906,black.png,0.04824257472068962,0.06425932070724019,0.0641144814031698,0.06549769675704202,0.060328386465118705,0.05823181518695535,0.062037423197915935,0.059213816727854814,0.061174288234029796,0.053342795770501585,0.06312610961510058,0.06247325986304997,0.06435590259503157,0.06048668151935119,0.06269751491517006,0.061378873751029225
1.7150001525878906,black.png,0.04828810522414508,0.06425894072758445,0.06411269326361338,0.06549879199252033,0.06032456431681685,0.058240666477759655,0.062031656447846466,0.059226758387894436,0.061190716766204446,0.05309207625294641,0.06310816116430297,0.062455222005274535,0.06433652363258882,0.06050243949919218,0.06267697366201563,0.06135683493099629
1.7150001525878906,black.png,0.048260903151142974,0.06424602141928928,0.06410107035649662,0.06548558211154724,0.06031247202306653,0.058223857965929264,0.06202124053493029,0.059210195745253054,0.0611549316233315,0.053219011809708096,0.06311719126906291,0.06246606260133536,0.06434615723444906,0.06047179525754395,0.06268902125227704,0.06137212352420372
1.7150001525878906,black.png,0.048283657226998476,0.06426575800964332,0.06412259508640708,0.06550786680076919,0.06033540491287767,0.05824384042547231,0.062043614631130055,0.059227764216394925,0.06119775756570787,0.05325915554274983,0.0631219521906319,0.06246883421764782,0.06435109696997368,0.06050820624926165,0.06269188227556732,0.061372235282926
1.7150001525878906,black.png,0.04828578064272173,0.06424834600071264,0.06410113741172999,0.06548817491390406,0.060312293209110884,0.05823096582066605,0.06201969826456288,0.05921864470465716,0.06116604044032579,0.053064047165399454,0.06310737885324703,0.06245595961284156,0.06433614365293308,0.060482032356504484,0.06267777832481602,0.06136007593394231
1.7150001525878906,black.png,0.04826691577040145,0.06425809136129515,0.06411557663864811,0.0655001107454432,0.06032887820349672,0.058234385637567714,0.06203925604096127,0.059219225850013,0.06117574109741939,0.05334523211064721,0.06312751777500127,0.06247547268575104,0.06435710958923216,0.06048891669379672,0.06269907953728193,0.06138166771908614
1.7150001525878906,black.png,0.04831501672446927,0.06426095238458543,0.0641146825688699,0.06550062483556567,0.060326486566840004,0.05824272283824954,0.062034986857770306,0.05923055818445184,0.061193153106350075,0.05309670306404866,0.06310983754513712,0.06245696544134205,0.06433732829538921,0.060503646493392765,0.06267842652540523,0.061358734829274994
1.7150001525878906,black.png,0.04827536472980556,0.064248167186757,0.06410207618499711,0.06548567151852507,0.06031432721785632,0.05822448381477401,0.06202325219193127,0.059211380387709185,0.06115917845477801,0.05321109929217092,0.06312011934758656,0.06246876716241445,0.06434761009783865,0.06047248816162207,0.06269192697905623,0.06137426929167143
1.7150001525878906,black.png,0.0482906980265019,0.06427040717249002,0.06412581373760864,0.06550943142288106,0.060339584689090814,0.05824591913770665,0.06204859907014359,0.059229977039096,0.0612020938041322,0.05326409527827445,0.06312483556566663,0.06247187405489374,0.06435225926068536,0.06050943559520669,0.06269489976106879,0.06137467162307163
1.7150001525878906,black.png,0.04829487780271504,0.06425295046007043,0.06410402078676472,0.06548864430053762,0.06031620476439056,0.05823324569860049,0.0620248391657876,0.05922105869305833,0.06117165072818407,0.05306588000844479,0.06311032928351513,0.06245944648497659,0.0643372835919003,0.060483306405938436,0.06268095227252868,0.0613621322944322
1.7150001525878906,black.png,0.0482487885056482,0.06426569095440995,0.06411955524916116,0.06550198829197744,0.06033426497391045,0.05823840895156967,0.062044329886952625,0.059222288039003375,0.06118282660041172,0.053346930843225816,0.06313357509774865,0.062482558188743376,0.06436111055148966,0.0604928282490764,0.06270574035712961,0.061387881504044714
1.7150001525878906,black.png,0.04826340654652197,0.0642701165998121,0.0641209857608063,0.06550612336470167,0.06033502493322193,0.058249853044730786,0.062043279354963225,0.05923518499555409,0.06120017155410904,0.053104146194952274,0.06311540312950649,0.06246396153735656,0.06434206686521374,0.060508027435306005,0.0626854449731642,0.061365350945633765
1.7150001525878906,black.png,0.04823229291824018,0.06425578913161625,0.06410598774027679,0.06548971718427148,0.06032020572664806,0.058230764654965954,0.06202917540421193,0.059218287076745875,0.061164475818213916,0.05323175230404762,0.06312425442031079,0.06247502565086194,0.0643509405077625,0.06047867959483619,0.06269706788028095,0.06138090775977466
1.7150001525878906,black.png,0.04824480989513515,0.06427972784992789,0.06413070876964436,0.06551522052469498,0.06034684900603879,0.05825345167558809,0.06205449993067979,0.05923844835024456,0.06120765938850157,0.05329053739196508,0.06313095994364738,0.06247971951719755,0.06435755662412126,0.06051690107785476,0.06270185115359439,0.06138289706503118
1.7150001525878906,black.png,0.04824834147075909,0.06425990185259603,0.06410900522577825,0.06549517100991857,0.06032322321214953,0.05824051001554847,0.06202935421816757,0.059229284135017886,0.06117688103638661,0.0530888799534893,0.0631154478329954,0.06246619671180209,0.06434141866462453,0.0604913753856868,0.06268642844992023,0.06136979894278037
1.7150001525878906,black.png,0.048226280298981704,0.06427186003587962,0.06412154455441768,0.0655054081088791,0.06033880237803488,0.05824196287893806,0.06204506749451965,0.05922718307103909,0.061185911141146555,0.05336000661373217,0.0631369502111614,0.062487274406823445,0.06436370335384647,0.06049705272877845,0.06270920487752019,0.06139286594305825
1.7150001525878906,black.png,0.048256611616207555,0.06427559277720366,0.06412465144689697,0.06551068312057055,0.0603409928489915,0.058253496379077,0.06204578275034222,0.05924142113225712,0.061205491269289404,0.053111142290966785,0.0631219968941208,0.06247120350256008,0.06434776656004984,0.06051444238596468,0.06269150229591158,0.06137216822769263
1.7150001525878906,black.png,0.048219798293089665,0.06426403692532026,0.06411121804847933,0.06549517100991857,0.0603285876308188,0.05823460915501227,0.06203239405541349,0.05922170689364754,0.06116836502174914,0.05322214105393184,0.0631291494523465,0.062479943034642105,0.06435523204269791,0.06048180883905993,0.06270151587742756,0.0613848863702877
1.7150001525878906,black.png,0.04823926666251024,0.06428529343429726,0.06413419564177938,0.06551861798985219,0.06035335336367528,0.058255575091311344,0.062057517416181256,0.059242046981101866,0.061210676874003035,0.053289553915209044,0.06313560910649409,0.06248468160446663,0.0643619375660345,0.06052056676394543,0.06270627679899654,0.061387255655199965
1.7150001525878906,black.png,0.04824029484275518,0.0642656686026655,0.06411320735373585,0.06549901550996488,0.06033026401165295,0.05824287930046073,0.06203393632578091,0.05923306157983083,0.06118041261201055,0.053073144325392764,0.06312014169933101,0.06247077881941543,0.06434566549607104,0.060494124650254805,0.06269109996451139,0.06137277172479293
1.7150001525878906,black.png,0.04820643194990539,0.06427796206211592,0.06412612666203102,0.06550902909148086,0.0603456420118382,0.058243952184194585,0.06204886729107705,0.05922816654779512,0.061188056908614265,0.05334753434032611,0.06314092882167445,0.06249114125861421,0.06436685494981467,0.06049913144101279,0.06271331759849996,0.061395257579714965
1.7150001525878906,black.png,0.048244184046290405,0.06427992901562798,0.06412746776669834,0.06551280653629381,0.06034532908741583,0.05825544098084461,0.06204625213697578,0.05924412569333621,0.06120649709778989,0.05310830361942096,0.06312374033018832,0.06247357278747234,0.06434850416761687,0.06051620817377665,0.06269375982210157,0.061373397573637675
1.7150001525878906,black.png,0.048212846900564064,0.06426792612885548,0.06411463786538099,0.06549809908844222,0.060333147386687686,0.05823867717250313,0.06203496450602585,0.059225104358804743,0.0611707343066614,0.05321637430386237,0.0631320998826146,0.06248380988643287,0.06435795895552146,0.06048496043502813,0.06270533802572942,0.0613878368005558
1.7150001525878906,black.png,0.04823566803165293,0.06428748390525388,0.06413629670575818,0.06552024966719742,0.060356147331732196,0.058258950204724096,0.06205805385804818,0.059243768065424925,0.06121123566761442,0.053289643322186865,0.06313728548732823,0.06248738616554572,0.06436312220849064,0.060521885516868296,0.0627086460839088,0.06138922260871203
1.7150001525878906,black.png,0.048238797275876676,0.06426830610851123,0.06411504019678119,0.06550089305649913,0.06033321444192105,0.05824717083539615,0.06203512096823704,0.05923639198975467,0.061182625434711625,0.0530859295232212,0.06312286861215456,0.06247477978167293,0.06434821359493895,0.060498125612512305,0.06269496681630216,0.06137657152135033
1.7150001525878906,black.png,0.04821110346449655,0.06428234300402916,0.06413026173475525,0.0655138123647943,0.06035120759620757,0.05825103768718692,0.06205251062542327,0.05923556497520983,0.06119120850458246,0.053362554712600076,0.06314497448742086,0.06249659508426131,0.06437150411266138,0.060503646493392765,0.06271897258984716,0.0614008902193177
1.7150001525878906,black.png,0.04825276711616124,0.06428498050987488,0.06413265337141197,0.06551899796950793,0.060352481645641526,0.05826259353907031,0.06205416465451296,0.05925183704517329,0.06121052041179185,0.05312915779699776,0.06312968589421343,0.062480323014297845,0.06435619316770949,0.060523316028513435,0.06270118060126073,0.06138048307663001
1.7150001525878906,black.png,0.048223843958836075,0.06427237412600209,0.06411959995265007,0.06550442463212307,0.06034016583444665,0.05824502506792844,0.06204350287240778,0.059234246222286964,0.0611751376003191,0.05323157349009198,0.06313849248152882,0.06249091774116966,0.06436562560386963,0.060492314158953925,0.06271293761884422,0.06139501171052596
1.7150001525878906,black.png,0.04823890903459895,0.06429450235301284,0.06414324809828378,0.06552822923996797,0.06036504332602541,0.0582654992658495,0.062067575701186144,0.059251188844584086,0.06121575071999439,0.05330209324384847,0.06314439334206502,0.062494851648193794,0.06437092296730554,0.060527361694259846,0.06271689387761281,0.06139641987042664
1.7150001525878906,black.png,0.048247089773069594,0.0642770679923377,0.06412369032188539,0.06550965494032561,0.060342490415870004,0.05825394341396611,0.06204330170670768,0.05924289634739117,0.06118823572256991,0.053086421261599216,0.06313015528084699,0.062482133505598725,0.06435592494677603,0.06050366884513722,0.06270281227860597,0.06138334409992029
1.7150001525878906,black.png,0.048226749685615265,0.06428806505060972,0.06413663198192501,0.06551989203928614,0.06035697434627704,0.058254479855833034,0.062059037334804217,0.059238425998500106,0.06119523181858442,0.053359648985820886,0.06315141178982399,0.06250314414538671,0.06437738262145312,0.06050682044110542,0.06272547694748365,0.061406165231009155
1.7150001525878906,black.png,0.04827494004666091,0.06428904852736575,0.06413817425229243,0.06552438473992166,0.06035670612534358,0.058266102762949794,0.0620574950644368,0.05925445219927456,0.0612115932955257,0.0531326893726217,0.06313187636517005,0.062483184037588124,0.06435724369969889,0.060525037112836494,0.0627035945896619,0.061382494733630985
1.7150001525878906,black.png,0.04823750087469827,0.06427369287892495,0.0641214327956954,0.06550663745482414,0.06034052346235794,0.058246612041784766,0.06204167002936244,0.059236481396732495,0.06117475762066336,0.0532276619348123,0.06313862659199555,0.06249158829350332,0.06436439625792459,0.06049211299325383,0.06271333995024442,0.061395302283203876
1.7150001525878906,black.png,0.04825674572667429,0.0642949270361575,0.06414483507214011,0.06553041971092459,0.060365915044059165,0.05826742151587266,0.06206677103838575,0.059253960460896545,0.06121776237699537,0.05330513308109439,0.06314727671709976,0.06249840557556219,0.06437347106617344,0.06053024506929458,0.0627204478049812,0.061399549114650384
1.7150001525878906,black.png,0.048265373500034035,0.06427595040511494,0.06412476320561925,0.06551148778337094,0.06034342918913713,0.05825602212620045,0.06204316759624095,0.05924508681834779,0.06118626876905784,0.0530821297266638,0.06312823303082384,0.06248090415965368,0.0643536897723305,0.06050252890617,0.06270167233963875,0.06138137714640822
1.7150001525878906,black.png,0.04824512281955753,0.06428544989650845,0.06413587202261353,0.06552049553638643,0.060357153160232685,0.058256044477944906,0.0620587467621263,0.05924070587643455,0.06119442715578403,0.05336758385510252,0.06315138943807953,0.06250368058725364,0.06437832139472024,0.06050959205741788,0.06272663923819533,0.061407349873465286
1.7310001850128174,black.png,0.04828759113402261,0.06428933910004367,0.06414020826103786,0.0655275139841454,0.06035988007305623,0.05826965669031819,0.062060646660405,0.059259190769099086,0.0612155942577832,0.053136533872668014,0.06313652552801675,0.062487564979501364,0.06436227284220133,0.06053006625533894,0.06270907076705345,0.0613873897656667
1.7310001850128174,black.png,0.04826112666858753,0.06427574923941484,0.06412605960679765,0.0655119571700045,0.06034593258451612,0.058250478893575534,0.06204743677943191,0.05923885068164476,0.061177484533486905,0.053224823263266476,0.06314218051936395,0.0624946504824937,0.06436835251669318,0.06049533164445539,0.0627174973747131,0.061398543286149895
1.7310001850128174,black.png,0.04828084090719711,0.06429494938790195,0.06414758433670811,0.06553392893480407,0.06036942426793865,0.05826782384727285,0.06207010144830959,0.05925416162659664,0.06121946110957397,0.05330180267117055,0.06314919896712291,0.06249916553487367,0.06437525920572987,0.06052997684836112,0.06272257122070446,0.06140051023966196
1.7310001850128174,black.png,0.04828772524448934,0.06427612921907058,0.06412619371726438,0.06551374530956093,0.06034593258451612,0.05825405517268838,0.06204511219800856,0.059244908004392145,0.06119040384178207,0.05308988578198979,0.06313120581283639,0.06248275935444347,0.06435690842353206,0.060505032301548994,0.06270466747339576,0.061383835838298303
1.7310001850128174,black.png,0.04827176609894825,0.06428531578604171,0.06413902361858173,0.06552431768468829,0.06036061768062326,0.05825582096050035,0.06206241244821697,0.05924349984449146,0.0611978916761746,0.05336999784350369,0.063154406923581,0.06250573694774353,0.06438042245869904,0.06050963676090679,0.06272941085450778,0.06140880273685488
1.7310001850128174,black.png,0.048320291736160724,0.06429220012333395,0.0641432928017727,0.06553075498709142,0.0603628975585577,0.058268337937395324,0.06206158543367212,0.059256195635342075,0.06121984108922971,0.053146189826272706,0.06313923008909585,0.06248995661615808,0.06436406098175776,0.060530848566394874,0.06271148475545463,0.061389021443011935
1.7310001850128174,black.png,0.04828917810787894,0.06427758208246018,0.06412901003706575,0.06551524287643944,0.06034825716593947,0.058251663536031666,0.06204848731142131,0.059241197614812564,0.061181910178889055,0.05323595443200522,0.06314412512113156,0.06249681860170586,0.06437023006322742,0.060496270417722514,0.06271988901136982,0.061399973797795035
1.7310001850128174,black.png,0.048309093512188615,0.06429745278328095,0.0641506912291874,0.065537214641239,0.06037212882901774,0.058270193132185115,0.062073185989044426,0.059257670850476125,0.0612248478799877,0.05331624189808868,0.06315243997006893,0.06250327825585344,0.06437845550518698,0.06053326255479605,0.06272657218296196,0.06140433238796382
1.7310001850128174,black.png,0.048313720323290864,0.0642823206522847,0.06413175930163376,0.06551966852184159,0.060350872320040744,0.058260336012880325,0.06205007428527764,0.05925016066433914,0.06119849517327489,0.053091048072701465,0.06313634671406111,0.06248892843591314,0.06436160228986768,0.06051010614754035,0.06271083655486542,0.06138917790522312
1.7310001850128174,black.png,0.04828240552930898,0.06429030022505525,0.06414324809828378,0.06552872097834599,0.06036461864288076,0.058260760696024975,0.0620642452912623,0.0592438798241472,0.06120280905995477,0.05336838851790291,0.06315699972593782,0.06250938028208974,0.06438301526105586,0.06051238602547479,0.06273341181676528,0.061412691940390104
1.7310001850128174,black.png,0.04832006821871617,0.06429608932686917,0.06414691378437445,0.06553544885342703,0.06036765848012668,0.05827446231537608,0.062067329831997135,0.05926292351042312,0.06122446790033196,0.05314998962283011,0.06314086176644108,0.06249221414234807,0.06436663143237012,0.06053404486585198,0.06271481516537847,0.06139194952153558
1.7310001850128174,black.png,0.048291189764879915,0.06427825263479384,0.06412999351382179,0.06551698631250695,0.0603506935060851,0.05825325050988799,0.06205092365156694,0.059242426960757606,0.06118606760335774,0.05322880187377952,0.06314566739149897,0.06249842792730664,0.06437137000219464,0.06049792444681221,0.06272223594453763,0.06140147136467354
1.7310001850128174,black.png,0.048308802939510696,0.06430017969610449,0.06415453572923371,0.06554126030698541,0.06037684504709781,0.05827193656825263,0.06207597995710134,0.05925773790570949,0.06122931822887876,0.05331963936324589,0.06315623976662633,0.0625068545349663,0.06438156239766626,0.06053552008098603,0.06273090842138629,0.06140761809439875
1.7310001850128174,black.png,0.048323331573406646,0.06428417584707449,0.06413421799352384,0.06552277541432087,0.060354247433453495,0.0582612971378919,0.06205222005274535,0.0592516805829621,0.06120207145238774,0.05310754366010948,0.06313869364722892,0.06249116361035867,0.06436392687129103,0.06051504588306497,0.0627132505432666,0.0613924412599136
2.18500018119812,blue.png,0.04830540547435349,0.06429164132972257,0.06414684672914109,0.06553372776910397,0.060368776067349444,0.05826397934722654,0.062070324965754146,0.05925516745509713,0.06120803936815731,0.05339205901528108,0.06316218533065145,0.06251447647982555,0.0643884467349585,0.06051949388021158,0.0627385080145011,0.06141872691139304
2.18500018119812,blue.png,0.048349103134763614,0.06429823509433688,0.06414981951115364,0.06553884631858424,0.06037112300051725,0.05827515521945419,0.06207050377970979,0.059267013879658444,0.061228245345144906,0.05316342302124775,0.06314381219670918,0.0624946504824937,0.06436857603413773,0.06053596711587514,0.06271734091250192,0.06139438586168121
2.18500018119812,blue.png,0.04831720719542589,0.06428243241100698,0.06413475443539077,0.06552190369628712,0.060355432075909626,0.05825483748374432,0.062054097599279594,0.059244908004392145,0.06119268371971651,0.053241452961141224,0.06315179176947973,0.06250430643609839,0.06437633208946372,0.06050252890617,0.06272782388065146,0.061407215762998554
2.18500018119812,blue.png,0.04834172705909336,0.06430433712057318,0.0641592966508027,0.06554644591169904,0.06038106952679986,0.058275289329920925,0.06208029384378121,0.059263527007523416,0.06123416855742556,0.05334091822396734,0.06316039719109502,0.06251112371815726,0.06438478104886783,0.060538515214743044,0.06273484232841042,0.06141188727758971
2.18500018119812,blue.png,0.04835793207382346,0.06428938380353258,0.06414011885406004,0.06552867627485708,0.060359678907356135,0.05826603570771643,0.06205660099465859,0.05925825199583196,0.06120832994083523,0.05310644842463117,0.06314340986530899,0.06249579042146092,0.06436696670853695,0.06051618582203219,0.06271807852006894,0.061395637559370705
2.18500018119812,blue.png,0.04832646081763039,0.0642949270361575,0.06414988656638701,0.06553602999878287,0.060371257110983984,0.058264672251304654,0.06206972146865385,0.05925277581844041,0.06121103450191432,0.053387611018134475,0.06316442050509698,0.06251689046822673,0.0643888937698476,0.06051786220286634,0.06274083259592445,0.06141971038814907
2.18500018119812,blue.png,0.04836854915243973,0.06430237016706111,0.06415527333680074,0.0655439648680645,0.06037579451510841,0.05827944675438961,0.062073811837889174,0.05927092543493812,0.06123459324057021,0.05316836275677237,0.0631495565950342,0.06250066310175217,0.06437318049349552,0.06053907400835443,0.06272328647652703,0.06139952676290593
2.18500018119812,blue.png,0.04833703319275775,0.06428571811744191,0.06413924713602628,0.06552641874866709,0.060360058887011875,0.05825901725995746,0.06205812091328155,0.059250630050972704,0.061198294007574795,0.053239441304140246,0.06315644093232643,0.06250873208150054,0.0643806459761436,0.060505501688182556,0.06273307654059845,0.061411172021767144
2.18500018119812,blue.png,0.04836159775991413,0.06430824867585286,0.06416468342121642,0.06555232442049079,0.06038728331175844,0.058279960844512084,0.062085524151983755,0.0592706348622602,0.061240963487739976,0.053348607224059964,0.06316638745860904,0.06251673400601554,0.06439126305475987,0.06054291850840074,0.06274192783140276,0.06141734110323681
2.18500018119812,blue.png,0.04843236338285963,0.0642970728036252,0.06414673497041881,0.06553609705401624,0.060367725535360045,0.05827093073975214,0.06206431234649567,0.05926560571975776,0.06121899172294041,0.053137249128490584,0.06315261878402458,0.06250408291865384,0.06437633208946372,0.060524277153525013,0.06272806974984046,0.06140386300133026
2.18500018119812,blue.png,0.048425926080456504,0.06430730990258574,0.06416171063920387,0.06554852462393339,0.06038504813731291,0.058274663481076176,0.06208391482638297,0.05926625392034696,0.06122817828991154,0.05345703553641266,0.06318127372041628,0.06253276020679,0.06440559052295572,0.060533419017007234,0.0627581104943884,0.06143613892032372
2.18500018119812,blue.png,0.04846560042686467,0.06432447604232741,0.06417541225855497,0.06556468493517457,0.06039698396885204,0.058298333978454346,0.06209339196603202,0.05929370186253808,0.06125931426993778,0.05326212832476238,0.06317304827845673,0.06252404302645242,0.06439595692109548,0.0605633927063218,0.0627469569739052,0.06142328666726192
2.18500018119812,blue.png,0.04843808542944019,0.06431305430091075,0.06416472812470533,0.06555225736525742,0.06038598691058003,0.05828387239979176,0.06208268548043793,0.05927792153095263,0.061226345446866205,0.053342929880968316,0.06318344183962844,0.06253613532020275,0.06440626107528938,0.06053290492688476,0.06275978687522255,0.061438642315702716
2.18500018119812,blue.png,0.04845290463601406,0.06433980933902375,0.06419539471809801,0.0655828792551612,0.06041821812608458,0.05831011334778229,0.06211518491687595,0.05930148026960853,0.06127576515385689,0.053466289158617154,0.06320105501425922,0.06255146861689909,0.06442420952608699,0.060575708517516674,0.06277608129693046,0.061451651030975704
2.18500018119812,blue.png,0.048464594598364184,0.06433167330404202,0.06418240835456948,0.06557165867944463,0.06040324245729953,0.05830642530994717,0.062099091660868126,0.05930170378705308,0.061253681630335045,0.0532424140861528,0.06318643697338545,0.06253841519813719,0.06440764688344561,0.06055666483124075,0.0627613067938455,0.06143743532150213
2.18500018119812,blue.png,0.04843741487710653,0.06433712712968911,0.06419526060763128,0.06558191813014962,0.06041736875979528,0.05830754289716993,0.06211355323953071,0.05929707697595083,0.06126215294148361,0.05353093040358191,0.06321410843302112,0.06256599725079504,0.06443612300588167,0.060562610395265865,0.06279119107618225,0.061467833693961346
2.18500018119812,blue.png,0.04847771507235945,0.0643539356415195,0.06420719643917042,0.06559660322625675,0.06042952810877897,0.0583286652956802,0.062124907925714005,0.05931971929308406,0.06129217133428709,0.053330032924417604,0.06320389368580505,0.06255500019252302,0.06442519300284302,0.060589991282223615,0.06277838352660936,0.0614531038943653
2.18500018119812,blue.png,0.04844599794697737,0.06434065870531305,0.06419606527043167,0.06558413095285069,0.06041770403596211,0.058314673103651175,0.062114380254075556,0.059308588124345314,0.06126027539494936,0.05340050797468519,0.06321513661326607,0.06256805361128492,0.0644358100814593,0.06056281156096596,0.06279250982910511,0.06146977829572896
2.18500018119812,blue.png,0.04846962374086663,0.0643673913916816,0.06422673186382435,0.06561450697356545,0.060449309402621915,0.05834033290628587,0.06214607502771318,0.059332482139168044,0.06130712465132769,0.053520089807521085,0.06323084988961815,0.06258188934110276,0.06445123278513346,0.06060449756437511,0.06280692670427879,0.061481647072034726
2.18500018119812,blue.png,0.04848989677308759,0.0643606411648561,0.06421361138982909,0.06560337580482671,0.06043419962337013,0.05833765069695123,0.06212908770192715,0.05933348796766853,0.06128969029065255,0.05328915158380885,0.06321951755517931,0.0625715181316755,0.06443889462219413,0.060589946578734705,0.06279552731460658,0.061470605310273804
2.18500018119812,blue.png,0.048454536313359296,0.06436672083934794,0.06422898939001434,0.06561640687184415,0.06045134341136735,0.05834069053419715,0.06214913721670356,0.059333666781624175,0.0612966193314337,0.05358455223853019,0.06324676433167033,0.06259889901863325,0.06446663313706316,0.060596227418926646,0.06282480809984303,0.06150120484843312
2.201000213623047,blue.png,0.04850996863960846,0.06438621156051297,0.0642412157942314,0.06563091315399565,0.060462742801039554,0.05836246113329663,0.0621581673214635,0.05935818664529165,0.0613271741661041,0.05338524173322221,0.06323713072981009,0.06258848310571707,0.06445588194798016,0.060624569430895975,0.0628124699369037,0.06148647504883707
2.201000213623047,blue.png,0.048480777261349826,0.06437134765045019,0.06422800591325831,0.06561636216835524,0.060449063533432906,0.05834703842962246,0.062145627992824075,0.0593413557817168,0.06129308775580976,0.053450039440398146,0.06324627259329231,0.0625995695709669,0.06446500145971792,0.060594238113670124,0.06282400343704264,0.06150104838622193
2.201000213623047,blue.png,0.04849581998536825,0.06439915322055259,0.06425999125957385,0.06564787812803723,0.06048270290883814,0.058374240502624575,0.0621792226647404,0.059366054459339915,0.061343490939556475,0.05356640262203248,0.06326589742492407,0.06261675806245304,0.06448395573901602,0.060637421683957776,0.06284190718435134,0.06151582288930689
2.201000213623047,blue.png,0.048515020133855356,0.06439367704316104,0.06424794366931244,0.06563741751163214,0.06046866601332021,0.058371044203167466,0.06216333057443268,0.05936607681108437,0.06132509545386976,0.05333544204657579,0.06325346985500692,0.0626054257280142,0.06447054469234284,0.06062226720121708,0.062829077283034,0.06150357413334538
2.201000213623047,blue.png,0.04849430006674529,0.06440120958104248,0.06426410398055363,0.06565145440715008,0.06048596626352862,0.058375760421247536,0.06218304481304226,0.05936992131113068,0.06133209154988427,0.053629725114074364,0.06328176716348734,0.06263399125742808,0.06449935609094573,0.060628995076298126,0.06285938624851539,0.06153533596221637
2.201000213623047,blue.png,0.048533505026519895,0.06441754870623931,0.06427606216383722,0.0656658489305793,0.060497075080522905,0.05839630167440196,0.06219178434512428,0.05939144604104114,0.0613633839921217,0.05342549722498622,0.06327262530000512,0.06262359769625636,0.06448849314314045,0.06065702416384508,0.06284720454778725,0.06152078497657597
2.201000213623047,blue.png,0.04850312900580513,0.06440342240374355,0.06426338872473106,0.06565172262808354,0.060483842847805364,0.05838105778468344,0.06217870857461793,0.05937465988095521,0.06132844821553805,0.05348868560656138,0.06328049311405338,0.0626336336295168,0.06449676328858892,0.06062729634371952,0.06285779927465907,0.061534888927327266
2.201000213623047,blue.png,0.04851908815134622,0.06442926102033389,0.06429325065532335,0.06568140574472019,0.06051524704876507,0.058406628180340314,0.06221062686570011,0.059398956227178126,0.061377487942872996,0.05361579997727871,0.0632994920968404,0.06265044214134718,0.06451641047196513,0.060671105762851923,0.06287539009754539,0.06155019987227915
2.201000213623047,blue.png,0.0485358519596877,0.0644238518981757,0.06428135952727312,0.06567157097715985,0.06050132191196941,0.05840499650299508,0.062197439336471476,0.059401481974301576,0.061359584195564296,0.05337542931740633,0.06328596929144494,0.06263796986794112,0.06450232887295829,0.060655146617310834,0.06286146496074974,0.06153654295641696
2.201000213623047,blue.png,0.04851229322103181,0.06443084799419022,0.06429736337630312,0.0656848479133663,0.06051835394124436,0.05840859513385238,0.06221590187739156,0.059401012587668015,0.06136660264332326,0.053657396573710034,0.06331580887029277,0.06266756357759995,0.06453257078320632,0.060660913367380304,0.062893092679154,0.06156877417192151
2.201000213623047,blue.png,0.048552504009306906,0.06444732122985378,0.0643088745246976,0.0656987506984175,0.060529283944283,0.05842813055850632,0.062225490775762886,0.05942374431177906,0.06139805154777188,0.053456610853268006,0.06330635408238817,0.06265654416758348,0.06452246779471252,0.06068878599271607,0.06288111214412595,0.061553373819991805
2.201000213623047,blue.png,0.04852291029964808,0.06443250202327991,0.06429637989954709,0.06568529494825541,0.06051638698773229,0.05841335605542136,0.0622131302610791,0.05940926038137202,0.06136186407349874,0.053509182156226895,0.06331312666095813,0.06266510488570987,0.06452944153898257,0.060657672364434284,0.06289054458028609,0.06156530965153094
2.201000213623047,blue.png,0.0485362542910879,0.06445608311368026,0.06432478896674979,0.06571361460848028,0.06054680771193596,0.05843713831152181,0.062244020371916335,0.05943006985545991,0.06141005443454438,0.053634821311810174,0.06333152214664485,0.06268106403125095,0.06454752410024692,0.06069915720214333,0.06290721898164975,0.06157901127088204
2.201000213623047,blue.png,0.04855529797736382,0.06445078575024435,0.0643120261206658,0.06570196934961907,0.06053205556059546,0.058434389046953805,0.062226250735074366,0.05942926519265952,0.061391211913968555,0.05339610468102749,0.0633165464778598,0.06266722830143312,0.06453136378900573,0.060684293292080554,0.06289157276053103,0.06156454969221946
2.201000213623047,blue.png,0.04852624070957192,0.06445474200901294,0.0643258842022281,0.06571330168405791,0.060547031229380516,0.05843678068361052,0.06224422153761643,0.059428438178114676,0.061398118603005244,0.053679345986765145,0.06334660957415218,0.0626974925634256,0.06456236565856524,0.06069093176018378,0.06292353575510212,0.06159812201239133
2.201000213623047,blue.png,0.04857096655022699,0.06447602086973439,0.06434146336811344,0.06573151835578898,0.06056196219467666,0.058460920567622254,0.06225787845347863,0.0594563331551949,0.061432026199343945,0.053490138469950974,0.06333923349848193,0.06268902125227704,0.06455355907124985,0.06072209009195448,0.06291294102823031,0.06158511329711834
2.201000213623047,blue.png,0.04854895008193851,0.06446305685795031,0.0643296839987855,0.06571808495737134,0.060548752313703574,0.058446861320359866,0.06224442270331653,0.0594413798381543,0.061398587989638806,0.05353200328731576,0.06334924707999791,0.06270051004892707,0.06456274563822098,0.06069202699566209,0.06292496626674726,0.06159955252403647
2.201000213623047,blue.png,0.048566742070524936,0.06449070596584153,0.06436251871139034,0.06575047263508708,0.06058321870365366,0.058472923454394754,0.062279202017688995,0.05946458094889891,0.061447650068718204,0.053663051565057227,0.06336931894651877,0.06271805616832449,0.06458355511230887,0.060735255269438654,0.06294376408383417,0.06161539991085528
2.201000213623047,blue.png,0.04858037663464267,0.06448397809076048,0.06434913001646161,0.06573887207971478,0.06056793011044623,0.058469302471792994,0.062263578148314735,0.05946690553032226,0.061430215708043065,0.05342326205054069,0.06335521499576748,0.06270509215654041,0.06456866885050164,0.06072222420242121,0.06292892252551585,0.06160169829150418
2.201000213623047,blue.png,0.04855067116626157,0.06448625796869492,0.0643618928625456,0.06574964562054224,0.060582235226897624,0.058470867093904866,0.06228083369503423,0.05946715139951127,0.061432070902832855,0.05371204658890326,0.06338094185363553,0.06273088606964183,0.06459560270257028,0.06072452643210011,0.06295659398515152,0.0616314931668631
2.201000213623047,blue.png,0.04859839214067366,0.06450691098057162,0.06437577329585234,0.06576553771084996,0.0605962497706711,0.05849357646627146,0.06229069081433902,0.0594910901178229,0.06146799015617253,0.05351635706619705,0.06337521980705497,0.06272355469746049,0.06458838308911122,0.06075599768829318,0.06294787680481395,0.06161940087311278
2.201000213623047,blue.png,0.04856920076241502,0.06449200236701993,0.06436296574627945,0.0657518137397544,0.0605833975176093,0.05847898077714214,0.06227955964560028,0.059475734469382105,0.06143146740573256,0.05355498088061582,0.06338188062690266,0.06273189189814232,0.0645956921095481,0.06072452643210011,0.0629571527787629,0.061631336704651915
2.201000213623047,blue.png,0.04858938438765817,0.06451625400975394,0.06439155362743779,0.06577986517904581,0.06061346061390169,0.058502114832653385,0.06231042740469306,0.05949663335044782,0.06147809314466633,0.05369193001889348,0.06340027611258937,0.0627482533750836,0.06461366291209017,0.06076507249654203,0.06297389423535993,0.06164568652459222
2.201000213623047,blue.png,0.04860748930066697,0.06451218599226308,0.06437964014764311,0.06576935985915182,0.060599379014894844,0.05850079607973052,0.06229397652077395,0.05949924850454909,0.06146144109504713,0.05343716483559189,0.06338574747869342,0.06273479762492151,0.06459817315318264,0.060750923842301824,0.06295887386308596,0.061630710855807166
2.201000213623047,blue.png,0.0485261513025941,0.0645244794517135,0.06439271591814946,0.06577966401334572,0.060614846422057916,0.058502204239631206,0.06231000272154841,0.059496834516147915,0.061463005717159,0.05369257821948269,0.06341142963307257,0.0627604574275562,0.06462387765930624,0.06075070032485727,0.062986612377955,0.06165963401313233
2.2160000801086426,blue.png,0.048540411715556585,0.064536728207675,0.06440201424384287,0.06579153278965148,0.060623429491928754,0.05851905745495051,0.062316820003607276,0.059517353417557886,0.06149154889482843,0.05348334353963656,0.06339815269686612,0.0627459064419158,0.06461031015042187,0.06077656129319206,0.06297072028764727,0.06164103736174552
2.2160000801086426,blue.png,0.04852443021827104,0.0645177739283769,0.06438290350233358,0.06577146092313062,0.06060393877076373,0.058498829126218455,0.06229813394524264,0.05949685686789237,0.06144919233908562,0.05350120258345635,0.06339842091779958,0.06274807456112796,0.06461091364752217,0.06073985972879645,0.06297371542140429,0.061646960574026174
2.2160000801086426,blue.png,0.048541842227201724,0.06453786814664222,0.06440534465376671,0.06579383501933038,0.06062888331757585,0.05851581645200449,0.0623238608031107,0.05951210075761089,0.06149009603143883,0.053626059427983694,0.06341207783366178,0.06275978687522255,0.06462401176977298,0.06077598014783622,0.06298614299132144,0.061657197672986705
2.2160000801086426,blue.png,0.048572553524083316,0.06452409947205776,0.0643892961012478,0.0657793734406678,0.06060972787257765,0.058510250867635116,0.062301352596444204,0.05950953030699853,0.06146962183351777,0.05335504452646309,0.06339303414738585,0.06274203959012503,0.06460353757185192,0.06075794229006079,0.06296622758701176,0.061637997524499596
2.2160000801086426,blue.png,0.04854756427378228,0.06452666992267012,0.06439606867981776,0.06578379908606995,0.06061788625930384,0.05850551229781059,0.06231364605589462,0.05950322711506213,0.06146278219971445,0.05362011386395858,0.06341214488889514,0.06276137384907887,0.0646234976796505,0.060752153188246866,0.06298728293028866,0.06166046102767718
2.2160000801086426,blue.png,0.048585495184122945,0.0645356329721967,0.0644029977205989,0.06579285154257435,0.060624189451240235,0.058519303324139516,0.062317401148963114,0.05951885098443639,0.06149456638032989,0.053421429207495354,0.06340063374050066,0.06274858865125044,0.06461167360683365,0.06077960113043798,0.06297329073825964,0.06164322783270214
2.2160000801086426,blue.png,0.048545507913292395,0.06451866799815512,0.06438478104886783,0.0657741207807208,0.06060648686963163,0.05849979025123003,0.06230007854701025,0.059499494373738096,0.06145263450773174,0.053439288251315144,0.06340110312713422,0.06275086852918488,0.0646123441591673,0.06074294426953128,0.0629763082237611,0.061649106341493884
2.2160000801086426,blue.png,0.04854877126798287,0.06453920925130954,0.06440809391833471,0.06579705367053194,0.060632325486221966,0.05851785046074992,0.062325783053133854,0.059514313580311964,0.06149248766809555,0.05357878548846072,0.06341393302845157,0.06276166442175679,0.06462591166805168,0.06077700832808117,0.06298837816576698,0.06165860583288739
2.2160000801086426,blue.png,0.04857007248044878,0.0645234289197241,0.06439019017102601,0.06578116158022422,0.060612812413312483,0.05851027321937957,0.06230568883486853,0.05951160901923287,0.061472840484719335,0.053319594659756976,0.06339462112124218,0.06274355950874799,0.06460630918816437,0.060760870368584435,0.06296886509285748,0.06163902570474454
2.2160000801086426,blue.png,0.04854468089874755,0.06452910626281574,0.06439913086880814,0.06578766593786071,0.06062349654716212,0.05850848507982315,0.06231771407338549,0.05950599873137459,0.06147004651666242,0.05358392638968544,0.06341788928722016,0.06276702884042606,0.06463002438903145,0.06075785288308297,0.06299430137804764,0.06166589250157982
2.2160000801086426,blue.png,0.04859828038195138,0.06453804696059787,0.06440668575843403,0.0657975230571655,0.06062993384956525,0.05852370661779721,0.06232247499495447,0.0595239471821722,0.06149709212745334,0.05339811633802847,0.06340239952831263,0.06275024268034013,0.0646133946911567,0.06078118810429431,0.06297599529933873,0.061644725399580644
2.2160000801086426,blue.png,0.0485788120125308,0.06451904797781086,0.06438701622331336,0.06577655712086643,0.06060939259641082,0.058502070129164474,0.06230217961098905,0.05950190836213927,0.06145656841475587,0.05341400842833619,0.06340429942659133,0.06275377425596407,0.06461507107199085,0.06074531355444354,0.06298019742729632,0.061651341515939415
2.2160000801086426,blue.png,0.0485935194603824,0.06454037154202122,0.06441175960442538,0.0658006746531337,0.06063599117231264,0.05851975035902862,0.06232897935259096,0.05951775574895808,0.061496466278608594,0.05356021118881836,0.06341804574943134,0.06276555362529201,0.06462892915355314,0.060779489371715706,0.06299269205244686,0.06166177978060004
2.2160000801086426,blue.png,0.04861529005948187,0.06452830160001535,0.064395196961784,0.06578616837098221,0.06061726041045909,0.0585137600915146,0.06230821458199198,0.05951552057451255,0.06147842842083316,0.05330410490084945,0.06339989613293363,0.06274861100299489,0.0646093490254103,0.060764066668041544,0.06297346955221528,0.06164320548095768
2.6690001487731934,blue.png,0.04859007729173628,0.06453160965819474,0.0644027518514099,0.06579135397569584,0.06062611170126339,0.058510072053679474,0.06231836227397469,0.05950738453953082,0.061473220464375075,0.05357116354360146,0.06342148791807746,0.06277067217477228,0.0646319019355657,0.06075957396740603,0.06299743062227138,0.061668775876614554
2.6690001487731934,blue.png,0.04863708301032579,0.06454095268737706,0.06440979265091332,0.06580112168802281,0.06063308544553345,0.05852489126025334,0.062325783053133854,0.05952372366472765,0.061499416708876695,0.05338358770413252,0.06340470175799152,0.0627524107995523,0.06461520518245759,0.06078217158105034,0.06297818577029535,0.061645999449014596
2.6690001487731934,blue.png,0.04861567003913761,0.06452159607667876,0.06438956432218126,0.06577988753079027,0.060612186564467735,0.058503500640809614,0.06230504063427933,0.0595028918388953,0.06146135168806931,0.053396752881616695,0.06340838979582665,0.0627583116600885,0.06461831207493687,0.06074871101960075,0.06298446661048729,0.061655096609007906
2.6690001487731934,blue.png,0.048632411495734634,0.06454484189091228,0.06441564880796061,0.0658055249816805,0.06063976861712558,0.058524064245708496,0.06233195213460352,0.0595211979176042,0.06150124955192203,0.05355453384572671,0.06342262785704468,0.06277089569221683,0.06463293011581064,0.06078328916827311,0.0629979223606494,0.061666719516124666
2.6690001487731934,blue.png,0.04871681168279787,0.06453748816698648,0.06440123193278693,0.06579325387397454,0.06062387652681786,0.058520398559617826,0.062316015340806885,0.05952218139436023,0.06148676562151499,0.05332015345336836,0.06340758513302626,0.06275670233448771,0.06461764152260321,0.06077200153732318,0.06298234319476403,0.06165116270198377
2.6690001487731934,blue.png,0.04869428112438692,0.0645432325653115,0.06441209488059221,0.0658010769845339,0.06063639350371283,0.05851957154507298,0.0623297616636469,0.05951786750768036,0.061485133944169754,0.05361588938425653,0.06343328963914986,0.06278254095107805,0.06464352484268246,0.06077036985997794,0.06301008170963308,0.061680242321520126
2.6690001487731934,blue.png,0.04873757645339685,0.06456030929807535,0.06442619883134351,0.06581710318530835,0.06065007277131948,0.058540693943583244,0.062341786902163854,0.05954118037714724,0.06152120965972062,0.05345725905385721,0.06342573474952397,0.06277353319806256,0.06463500882804499,0.06080159524698201,0.06299939757578345,0.06166651835042457
2.6690001487731934,blue.png,0.048715269412430456,0.0645470323618689,0.0644122513428034,0.06580208281303439,0.06063567824789026,0.058526500585854124,0.062325827756622765,0.05952718818511822,0.06148647504883707,0.053480080184946086,0.06343308847344976,0.06278274211677815,0.06464207197929286,0.0607708392466115,0.06300945586078834,0.06167899062383063
2.6690001487731934,blue.png,0.048716901089775694,0.06457304979241488,0.0644430073431739,0.06583263764770479,0.060668669422706295,0.05855048400765467,0.06236096469890651,0.059548176473161754,0.06153287727032629,0.053651160437007,0.06345418852021557,0.06280176345130961,0.06466352965396996,0.0608114523662868,0.06302963948603148,0.061697251999050615
2.6690001487731934,blue.png,0.04873178735158293,0.064568490036546,0.06443294905816901,0.06582485924063435,0.06065635361151142,0.05855072987684368,0.062346547823732834,0.05955246800809717,0.06151930976144192,0.05339695404731679,0.06343881052003032,0.06278727952090257,0.06464703406656194,0.06079956123823658,0.06301350152653475,0.06168089052210933
2.6690001487731934,blue.png,0.04870172425529054,0.06457217807438112,0.06444338732282964,0.06583292822038271,0.06066889294015085,0.05854974640008764,0.062362641079740655,0.0595479529557172,0.061519019188764,0.05368312343157809,0.06346683960757728,0.06281613562299437,0.06467682894192087,0.06080137172953746,0.06304419047167188,0.06171417226960328
2.6690001487731934,blue.png,0.04874569013663413,0.06459376985952495,0.06446073227652696,0.0658524859967811,0.060686148486870345,0.05857598734807817,0.062378935501448574,0.059576227912453164,0.0615569277473602,0.053527510586680246,0.06346053641564088,0.06280900541651313,0.06466898347961705,0.06083599458169873,0.06303495920121184,0.06170288463865335
2.6690001487731934,blue.png,0.048721706714833585,0.06457892830120662,0.06444573425599745,0.06583679507217348,0.06067068107970727,0.058560318775215,0.062364406867552624,0.05956082756052346,0.0615209190870427,0.05354659897644508,0.0634658784825657,0.06281662736137239,0.06467457141573088,0.06080479154643912,0.06304300582921575,0.06171392640041427
2.6690001487731934,blue.png,0.048722891357289716,0.06460253174335143,0.064475216206934,0.06586578528473201,0.06070268877776727,0.058582692871414765,0.062397509801090933,0.05958076531657759,0.06156340975325224,0.05371629342034977,0.06348360341591876,0.06283276532086912,0.06469294454967314,0.060841873090490474,0.06306019432070188,0.061729058531410516
2.6690001487731934,blue.png,0.04874168917437663,0.06459792728399363,0.06446292274748358,0.06585574935147158,0.060689054213649535,0.05858300579583714,0.06238161771078321,0.05958472157534618,0.06155268091591369,0.053464858646972015,0.06346994650005656,0.0628206730271188,0.06467837121228828,0.06083507816017606,0.0630461350734395,0.061715580429503966
2.6690001487731934,blue.png,0.048692649447041686,0.06459984953401679,0.06447503739297836,0.06586571822949865,0.060702442908578264,0.058584548066204556,0.062396883952246185,0.059583313415445496,0.06155281502638042,0.05373998626947239,0.0634983332155148,0.06284966323967733,0.06470669087251316,0.06083532402936507,0.06307689107381,0.06174819162466426
2.6690001487731934,blue.png,0.04871428593567442,0.06462063665636023,0.0644933211199428,0.06588617007567525,0.06072021254542023,0.05860900087463866,0.062411412586142134,0.05960859323842445,0.06158864487274228,0.05358296526467386,0.06349187356136722,0.06284235421924045,0.064699270093354,0.06086833755592556,0.06306745863764986,0.061736166386147304
2.6690001487731934,blue.png,0.048662698109471575,0.06460624213293101,0.06447778665754636,0.06586983095047842,0.06070356049580103,0.058593689929686776,0.06239433585337828,0.059593125831261376,0.06155201036358003,0.05358991665719946,0.06349681329689184,0.06284968559142179,0.06470403101492297,0.06083746979683278,0.06307465589936447,0.061746783464763574
2.6690001487731934,blue.png,0.048598682713351576,0.06463809336877982,0.06450402760553689,0.06589591543625777,0.060733869461282425,0.0586148346799415,0.06242515890898215,0.059611901296603834,0.06158940483205376,0.053736432342104,0.06351167720695462,0.06286253784448359,0.06471981134650842,0.06087037156467099,0.06308864809139349,0.061758451075369244
2.6690001487731934,blue.png,0.048609210384990026,0.06462582226107386,0.06448811316348471,0.0658823479273734,0.06071670332154075,0.058609269095572125,0.06240475176629445,0.0596109178198478,0.06157315511383475,0.05344621729209629,0.06349238765148969,0.06284398589658569,0.06469976183173201,0.06085584293077504,0.06306879974231717,0.06173786511872591
2.6690001487731934,blue.png,0.04857067597754907,0.06462783391807483,0.06449195766353102,0.06588413606692982,0.06072390058325536,0.058602228296068704,0.06241199373149797,0.059598423194697284,0.06156401325035253,0.05369928374281928,0.06351254892498838,0.06286441539101784,0.06472168889304267,0.06084752808183767,0.0630920455565507,0.0617622732236711
2.6690001487731934,blue.png,0.048609925640812596,0.06463927801123595,0.06450273120435848,0.06589810590721439,0.06073514351071638,0.058620601430010966,0.062423594286870276,0.0596197691106521,0.06159472454723412,0.05354250860720976,0.06350119423880508,0.0628518313588895,0.064710021282437,0.060877725288596786,0.06307796395754385,0.06174622467115219
2.6690001487731934,blue.png,0.04859123958244796,0.06461965317960419,0.06448194408201505,0.06587655882555947,0.06071265765579434,0.05860066367395683,0.06240081785927032,0.0595999654650647,0.06155196566009112,0.05353455138618367,0.0634993390440153,0.06285272542866771,0.06470702614867999,0.060840196709656326,0.0630779416057994,0.06174993506073177
2.6690001487731934,blue.png,0.048599599134874244,0.06463923330774704,0.06450434052995926,0.06589801650023656,0.06073637285666142,0.05861601932239763,0.0624247342258375,0.0596100684535585,0.06158822018959763,0.05369161709447111,0.06351346534651105,0.06286526475730714,0.06472104069245346,0.060871735021082764,0.06309112913502803,0.061761401505637345
2.6690001487731934,blue.png,0.04862713648404318,0.06462555404014039,0.06448896252977401,0.06588453839833001,0.06071806677795252,0.05861186189792894,0.062404796469783363,0.05961172248264819,0.061571612843467335,0.05341888110862745,0.06349290174161216,0.06284588579486439,0.06469976183173201,0.060858815712787596,0.06306947029465083,0.06174048027282718
2.6690001487731934,blue.png,0.04859222305920399,0.06462845976691958,0.06449276232633142,0.06588590185474179,0.060724302914655554,0.058605268133314625,0.06241413949896568,0.05960313941277735,0.06156269449742967,0.053672104021561626,0.06351295125638858,0.06286609177185198,0.06472110774768683,0.06084900329697172,0.06309244788795089,0.061764061363227526
2.6690001487731934,blue.png,0.04863082452187831,0.06464075322637,0.06450460875089273,0.0658996481775818,0.0607362834496836,0.05862250132828967,0.062424220135715025,0.05962211604381991,0.06159577507922352,0.05349744749038786,0.06350345176499507,0.06285505001009106,0.06471062477953729,0.06087866406186391,0.0630802885389672,0.06174807986594198
2.6690001487731934,blue.png,0.048601923716297596,0.06462269301685011,0.06448455923611632,0.0658785928343049,0.06071536221687343,0.058601647150712866,0.06240253894359338,0.059600993645309644,0.06155464786942576,0.05347925317040124,0.06350244593649458,0.06285598878335819,0.06470932837835888,0.06084182838700156,0.06308162964363452,0.06175181260726602
2.6690001487731934,blue.png,0.048604740036098965,0.06464448596769404,0.06450887793408369,0.06590228568342753,0.06074180433056406,0.05861905915964355,0.062428936353795095,0.059615611686183415,0.061590187143109695,0.05364999814629533,0.0635164381285236,0.0628680810771085,0.06472356643957691,0.06087218205597187,0.06309477246937424,0.06176305553472704
2.6690001487731934,blue.png,0.04862212969328519,0.06462904091227542,0.06449117535247509,0.06588704179370901,0.060722671237310316,0.05861268891247379,0.06240857391459631,0.05961362238092689,0.06157400448012405,0.05338381122157707,0.06349607568932482,0.06284863505943239,0.06470309224165585,0.06085859219534304,0.06307380653307516,0.06174166491528331
2.6690001487731934,blue.png,0.04858679158530135,0.06463219250824362,0.06449689739905565,0.06589055101758849,0.060730248478680665,0.05860752565950461,0.06241881101355684,0.05960528518024506,0.06156600255560905,0.053650534588162255,0.06351909798611378,0.0628722385015772,0.06472669568380066,0.0608516631545619,0.06309930987349867,0.06176947048538572
2.6690001487731934,blue.png,0.048627315297998824,0.06464526827874997,0.064509973169562,0.06590559374160691,0.06074247488289772,0.05862681521496954,0.062428221097972525,0.05962450768047663,0.061596758555979556,0.05349273127230779,0.06350729626504138,0.06285902862060411,0.06471388813422776,0.060878731117097275,0.06308466948088044,0.06175127616539909
2.6690001487731934,blue.png,0.04860062731511919,0.06462226833370546,0.064485721526828,0.06588064919479479,0.06071773150178569,0.05860238475827989,0.062404260027916436,0.059601708901132214,0.061553709096158635,0.05348157775182459,0.06350454700047338,0.06285849217873718,0.06471174236676006,0.06084299067771324,0.06308446831518034,0.06175398072647818
2.6690001487731934,blue.png,0.04861419482400356,0.06464683290086184,0.06451337063471921,0.06590771715733017,0.06074728050795561,0.058623171880623326,0.06243490426956466,0.05962242896824228,0.06159340579431126,0.053659341175477646,0.06352383655593831,0.0628760830016235,0.06473145660536964,0.06087897698628628,0.06310266263516696,0.06177103510749759
2.684000015258789,blue.png,0.04863958640570479,0.0646323042669659,0.06449805968976732,0.06589466373856827,0.06072895207750226,0.05861834390382098,0.06241590528677765,0.05962354655546505,0.061576619634225324,0.05339143316643633,0.06350217771556112,0.06285511706532443,0.06470852371555849,0.060866102381480026,0.06307986385582255,0.06174819162466426
2.684000015258789,blue.png,0.04860576821634391,0.06463438297920024,0.06450159126539126,0.06589555780834648,0.060734294144427076,0.0586116830839733,0.062422320237436324,0.05961315299429333,0.06156636018352034,0.05364816530324999,0.06352269661697109,0.06287599359464568,0.0647298249280244,0.0608556641168194,0.06310288615261152,0.06177313617147639
2.684000015258789,blue.png,0.048642603891206254,0.06464593883108363,0.06451337063471921,0.06590925942769758,0.06074584999631047,0.058629318610348535,0.062432177356741114,0.05963192845963579,0.06159926195135855,0.053491233705429284,0.06351207953835482,0.06286394600438427,0.06471853729707447,0.06088418494274437,0.06308967627163843,0.0617561711974348
2.684000015258789,blue.png,0.04862367196365261,0.06462635870294078,0.06449233764318676,0.06588715355243129,0.06072345354836625,0.05860830797056055,0.0624093785773967,0.05961020256402523,0.0615588276456389,0.05347286057148702,0.06351031375054285,0.0628644824462512,0.06471665975054022,0.060847818654515586,0.06309027976873872,0.06175970277305874
2.684000015258789,blue.png,0.048635786609147386,0.06464884455786282,0.06451755041093235,0.06591153930563202,0.060750342696945986,0.05862625642135816,0.06243691592656564,0.05962520058455474,0.06159546215480115,0.05365185334108512,0.06352709991062878,0.06287948046678071,0.0647338258902819,0.06087969224210885,0.06310632832125763,0.06177373966857668
2.684000015258789,blue.png,0.04865384681866727,0.0646359028978232,0.06450331234971432,0.06589935760490388,0.06073364594383787,0.058621607258511454,0.06241910158623476,0.05962435121826544,0.061580374727293816,0.05337525050345069,0.06350604456735189,0.06285907332409302,0.06471198823594906,0.06086771170708081,0.06308420009424688,0.06175096324097672
2.684000015258789,blue.png,0.04862219674851856,0.06463594760131211,0.06450436288170372,0.06589786003802538,0.06073637285666142,0.05861177249095112,0.06242216377522514,0.05960968847390276,0.06156779069516548,0.053633770779820775,0.06352468592222761,0.06287809465862448,0.064731523660603,0.06085537354414148,0.06310543425147942,0.061773918482532324
2.684000015258789,blue.png,0.04867119177236459,0.06464591647933918,0.06451645517545404,0.06591232161668796,0.06074799576377818,0.05862943036907081,0.062433741978852986,0.059630989686368666,0.06160084892521488,0.053494228839186295,0.0635151864308341,0.0628667846759301,0.06472173359653158,0.060887157724756925,0.06309300668156227,0.06175889811025835
2.684000015258789,blue.png,0.04864546491449653,0.06462718571748563,0.06449624919846644,0.06589171330830017,0.060726828661779,0.058610364331050435,0.06241279839429836,0.059614091767560454,0.06156101811659552,0.053471944149964354,0.06351333123604432,0.06286694113814129,0.06472045954709763,0.0608506126225725,0.06309367723389593,0.06176196029924873
2.684000015258789,blue.png,0.04865100814712145,0.06464703406656194,0.06451871270164403,0.06591337214867736,0.06075226494696914,0.05862482590971302,0.06243899463879998,0.05962448532873217,0.06159711618389084,0.05365225567248531,0.06352911156762976,0.06288091097842585,0.06473684337578337,0.06088094393979835,0.06310898817884782,0.06177568427034429
2.684000015258789,blue.png,0.04868377580449293,0.06463532175246736,0.06450489932357065,0.06590226333168307,0.060736395208405874,0.05862281425271204,0.06242187320254722,0.05962752516597809,0.061584710965718145,0.0533813972331759,0.0635088385354088,0.06286168847819429,0.06471567627378419,0.06087238322167197,0.063087642262893,0.061754785389278574
2.684000015258789,blue.png,0.048633551434701855,0.06463657345015686,0.06450838619570567,0.06590311269797237,0.06074084320555248,0.05861615343286436,0.06242730467644986,0.059618182136795775,0.061573848017912866,0.0536385093496453,0.06352991623043015,0.06288330261508257,0.06473751392811702,0.06086183319828906,0.06311140216724899,0.06178026637795763
2.700000047683716,blue.png,0.048663122792616226,0.0646502080142746,0.06452251249820143,0.06591947417491367,0.060755103618514966,0.05863591237496285,0.06244087218533423,0.05963950570100614,0.061609141422407795,0.05348886442051702,0.06352093082915912,0.0628726855364663,0.06472785797451233,0.060892678605637386,0.0630996451496655,0.06176526835742811
2.700000047683716,blue.png,0.048640547530716366,0.06462975616809799,0.0645000713467683,0.06589651893335806,0.06073152252811462,0.05861429823807457,0.062416642894344676,0.059618897392618345,0.06156738836376528,0.053460053021914124,0.06351717573609063,0.06287083034167651,0.06472383466051038,0.060854725343552275,0.06309778995487571,0.061766073020228504
2.700000047683716,blue.png,0.048640480475483,0.0646523090782534,0.06452459121043577,0.06591996591329169,0.06075854578716108,0.0586314867295607,0.06244420259525807,0.05963221903231371,0.06160460401828337,0.053648053544527716,0.06353469950374359,0.06288685654245096,0.06474216309096373,0.06088561545438951,0.06311511255682857,0.06178149572390267
2.700000047683716,blue.png,0.048666654368240164,0.06463979210135842,0.06451115781201813,0.06590852182013056,0.060742541938131084,0.058628268078359136,0.06242658942062729,0.05963201786661361,0.06159065652974326,0.05337715040172939,0.06351315242208867,0.06286624823406317,0.06471981134650842,0.060875020727517694,0.06309240318446198,0.06175880870328053
2.700000047683716,blue.png,0.048642603891206254,0.06463869686588011,0.0645114260329516,0.06590664427359631,0.06074426302245414,0.05861876858696563,0.06243130563870736,0.05962064082868586,0.06157831836680393,0.053634955422276906,0.06353266549499816,0.06288649891453968,0.06473995026826265,0.06086333076516757,0.06311471022542837,0.061783060346014544
2.700000047683716,blue.png,0.048685698054516086,0.06465262200267577,0.06452649110871447,0.06592351984066008,0.06075890341507237,0.058639555709309066,0.06244429200223589,0.05964368547721928,0.061614483489332614,0.05349963796134448,0.06352515530886117,0.06287744645803528,0.06473150130885855,0.0608963219399836,0.06310427196076775,0.061769671651085815
2.700000047683716,blue.png,0.048661312301315346,0.06463326539197747,0.06450503343403738,0.0659013022066715,0.060736529318872606,0.058618790938710086,0.06242106853974683,0.05962280894789802,0.06157053995973348,0.05346345048707133,0.06351945561402507,0.06287378077194461,0.06472524282041106,0.060857161683697904,0.06310053921944371,0.06176864347084087
2.700000047683716,blue.png,0.04866549207752849,0.0646506550491637,0.06452546292846953,0.06592068116911426,0.060759015173794645,0.05863162084002743,0.062443979077813516,0.059632375494524895,0.061603329968849416,0.05365299328005234,0.0635343418758323,0.06288705770815106,0.0647407772828075,0.06088519077124486,0.06311506785333966,0.06178147337215822
2.700000047683716,blue.png,0.04869095071446308,0.06463856275541338,0.06451075548061794,0.06590832065443046,0.0607423854759199,0.05862867040975933,0.06242580710957135,0.05963239784626935,0.06159112591637682,0.053383185372732324,0.06351286184941075,0.06286647175150772,0.06471871611103011,0.060876585349629565,0.06309240318446198,0.06175905457246954
2.700000047683716,blue.png,0.04865623845532399,0.06463827218273546,0.06451265537889664,0.06590823124745264,0.06074611821724393,0.05862069083698879,0.06243291496430814,0.0596231218723204,0.0615794806575156,0.05363940341942351,0.06353382778570983,0.06288801883316264,0.06474084433804086,0.06086507420123508,0.0631160960335846,0.06178406617451503
2.700000047683716,blue.png,0.04869953378433392,0.06465293492709814,0.06452816748954862,0.06592541973893878,0.06076017746450632,0.05864036037210946,0.062445789569114396,0.05964352901500809,0.061616293980633494,0.05350319188871287,0.06352665287573968,0.06287912283886943,0.06473244008212567,0.06089728306499518,0.06310572482415734,0.06177052101737512
2.700000047683716,blue.png,0.04867742790906762,0.06463337715069975,0.06450744742243855,0.06590402911949504,0.06073740103690636,0.05862006498814404,0.06242294608628107,0.05962341244499832,0.06157509971560236,0.05346163999577045,0.06352285307918228,0.06287715588535736,0.06472846147161262,0.06085937450639898,0.06310398138808983,0.06177096805226422
2.700000047683716,blue.png,0.048677226743367524,0.06465309138930933,0.06453011209131623,0.06592577736685007,0.0607621891215073,0.0586344371598288,0.06244885175810477,0.05963438715152587,0.06160967786427472,0.05366171046038991,0.06353961688752376,0.06289235507158697,0.06474620875671014,0.06088878940210216,0.06312043227200893,0.0617860331280271
2.700000047683716,blue.png,0.04869848325234452,0.06464332367698236,0.06451708102429879,0.06591549556440061,0.06074712404574442,0.05863334192435049,0.06243249028116349,0.05963896925913921,0.06160044659381468,0.05338669459661181,0.06352008146286982,0.06287362430973342,0.06472577926227799,0.06088190506480993,0.06309993572234342,0.06176520130219475
3.1470000743865967,blue.png,0.04866457565600582,0.06464368130489365,0.06451971853014452,0.06591549556440061,0.060750923842301824,0.05862585408995796,0.06243772058936603,0.059627279296789085,0.06158779550645298,0.05363837523917857,0.06354060036427979,0.0628950372809216,0.06474719223346617,0.06086970101233733,0.06312318153657694,0.061790682290873804
3.1470000743865967,blue.png,0.04871135785715078,0.06465832169751187,0.06453494006811858,0.0659326617041423,0.060765161903519854,0.058646417694856845,0.06245207040930634,0.05965030159357805,0.06162346889060365,0.053516468824919325,0.06353188318394222,0.06288475547847217,0.0647382738874285,0.060901395785974956,0.063111648036438,0.0617763324709335
3.1470000743865967,blue.png,0.04869068249352962,0.06463713224376824,0.06451205188179635,0.06590917002071976,0.06074070909508575,0.058624848261457474,0.06242699175202748,0.059629559174723526,0.061581089983116385,0.05346029889110313,0.06352649641352849,0.06288102273714813,0.06473252948910349,0.060861721439566786,0.06310833997825861,0.06177456668312153
3.1470000743865967,blue.png,0.0486882908568729,0.06465617593004416,0.06453460479195175,0.06593065004714133,0.06076545247619777,0.058638840453486496,0.06245426088026296,0.05964069034346227,0.06161564578004429,0.05366141988771199,0.06354475778874848,0.06289722775187823,0.06475168493410169,0.060892499791681744,0.06312622137382286,0.06179097286355172
3.1470000743865967,blue.png,0.048720566775866364,0.0646477046188956,0.06452235603599024,0.06592070352085871,0.060750297993457075,0.05863801343894165,0.06243747472017702,0.05964533950630897,0.061605855715972865,0.05339074026235822,0.06352406007338286,0.0628775358650131,0.06472957905883539,0.0608853695852005,0.06310433901600111,0.06176902345049661
