Timestamp,Filename,1/Fp1,2/Fp2,3/Cz,4/Pz,5/P7,6/P8,7/O1,8/O2,9/CP5,10/CP6,11/CP1,12/CP2,13/PO3,14/PO4,15/P3,16/P4
0.44700002670288086,black.png,0.05897214966680404,0.07576816687204443,0.07618925138583796,0.07783843014698388,0.07313622661068757,0.06941061549313253,0.07388116554989405,0.07151295352136534,0.07357344908397782,0.0716698627674416,0.07513867469294962,0.07474841323475996,0.07626567200013065,0.07232130435959153,0.07497476935085885,0.07343026380899713
0.44700002670288086,black.png,0.058979257521540825,0.07575278887185918,0.0761719287838851,0.07782070521363083,0.07311722762790056,0.06939715974297044,0.07386147366302892,0.07149755316943564,0.0735354511184038,0.071665660639484,0.07513364555044717,0.07474532869402513,0.07625932410470534,0.07229180005691052,0.07497096955430145,0.07342863213165189
0.44700002670288086,black.png,0.05895632463172968,0.07576872566565582,0.0761902795660829,0.0778374243184834,0.07313790299152172,0.0694047816878297,0.07388290898596156,0.07150823730328527,0.07356079799661612,0.07168258091003667,0.07515052111751093,0.07476057258374365,0.07627682552061385,0.07231122372284218,0.07498811334229867,0.0734444348149818
0.44700002670288086,black.png,0.05900013405086208,0.07576537290398752,0.07618314935960166,0.07783232812074758,0.07312923051467306,0.06941001199603224,0.07387081669221124,0.07150931018701913,0.0735622061565168,0.07166344781678292,0.07513185741089075,0.07474213239456802,0.07625686541281526,0.07231252012402059,0.07496775090309989,0.07342371474787172
0.44700002670288086,black.png,0.05895965504165352,0.07575844386320638,0.07617870136245505,0.07782551083868872,0.07312516249718219,0.06939604215574767,0.07386911795963264,0.07149893897759187,0.07353558522887053,0.07167824467161234,0.07514542491977512,0.07475692924939743,0.07627101406705547,0.07229220238831072,0.07498357593817424,0.07344181966088052
0.44700002670288086,black.png,0.058987013576866816,0.07577364304943598,0.07619327469983991,0.07784164879818545,0.07314042873864517,0.06941336475770053,0.07388456301505125,0.07151561337895553,0.07357785237763552,0.07167368491574345,0.07514200510287346,0.07475160953421707,0.076267750712365,0.07232505945266002,0.07497825622299388,0.07343323659100968
0.44700002670288086,black.png,0.05898214089657556,0.07575634279922758,0.0761740298478639,0.0778222698357427,0.07311999924421302,0.06939917139997141,0.0738622336223404,0.07149896132933632,0.0735392062114723,0.07166762759299607,0.07513518782081459,0.07474678155741472,0.07626048639541702,0.07229479519066753,0.07497313767351362,0.07342966031189684
0.44700002670288086,black.png,0.05894984262583764,0.07577265957267995,0.07619311823762873,0.07784001712084021,0.0731416133811013,0.06940721802797532,0.07388657467205223,0.07151074069866427,0.0735655589181851,0.07168600072693833,0.07515371741696804,0.07476390299366749,0.07627984300611532,0.0723161187548779,0.07499209195281172,0.07344689350687188
0.44700002670288086,black.png,0.05900243628054098,0.07576959738368957,0.0761866809352256,0.07783554677194915,0.07313197977924106,0.06941394590305637,0.07387495176493547,0.07151299822485425,0.0735687105141533,0.07166753818601825,0.07513561250395924,0.07474631217078116,0.07626088872681722,0.07231848803979016,0.07497260123164669,0.07342679928860656
0.44700002670288086,black.png,0.05896765696616852,0.07576329419175318,0.07618236704854572,0.07782875184163474,0.07312681652627188,0.0694005795598721,0.07387271659048994,0.07150177764913769,0.07354177666208465,0.07168255855829221,0.07514942588203262,0.0747614443017774,0.07627454564267941,0.0722969633098797,0.07498862743242114,0.07344497125684872
0.44700002670288086,black.png,0.05899582016418221,0.0757789851163608,0.0761986838219981,0.0778463203127766,0.07314239569215723,0.06941982441184812,0.0738883404598642,0.07152064252145797,0.07358469201143884,0.07167793174718996,0.07514669896920907,0.07475681749067516,0.07627242222695615,0.07233098266494067,0.07498375475212989,0.07343694698058927
0.44700002670288086,black.png,0.059008359492821634,0.07576034376148508,0.07617814256884367,0.07782553319043317,0.07311932869187936,0.06940442405991841,0.07386469231423048,0.07150318580903837,0.07354454827839711,0.07167089094768654,0.07513887585864971,0.07475082722316113,0.07626390621231868,0.07230049488550364,0.07497666924913755,0.0734326777973983
0.44700002670288086,black.png,0.05898265498669803,0.07577636996225953,0.07619727566209741,0.07784314636506395,0.07314029462817843,0.06941220246698886,0.07388820634939747,0.07151500988185523,0.07356846464496429,0.0716886158810396,0.07515731604782534,0.07476727810708024,0.0762835533956949,0.07231915859212382,0.07499502003133536,0.07344959806795097
0.44700002670288086,black.png,0.059042311792649245,0.07577176550290174,0.07618887140618222,0.077836619655683,0.07313032575015137,0.0694155328769127,0.07387497411667993,0.07151335585276554,0.07357219738628833,0.07166932632557467,0.07513959111447228,0.07474892732488243,0.07626424148848551,0.07232233253983647,0.07497476935085885,0.07342834155897397
0.44700002670288086,black.png,0.05900089401017356,0.07576798805808879,0.076187731467215,0.07783297632133679,0.07313007988096236,0.06940420054247386,0.07387703047716981,0.07150618094279539,0.07354702932203165,0.07168767710777248,0.07515727134433643,0.07476721105184687,0.07628183231137184,0.07230366883321629,0.07499401420283487,0.0734501345098179
0.44700002670288086,black.png,0.05904173064729341,0.07578486362515255,0.07620509877265677,0.0778515282692347,0.07314849771839353,0.06942416065027245,0.07389397309946694,0.0715262304575718,0.073591866921409,0.07168483843622665,0.07515584083269129,0.07476343360703393,0.0762808488346158,0.07233949867957815,0.07499021440627747,0.0734438313178815
0.44700002670288086,black.png,0.059051118379964636,0.07576763043017751,0.07618587627242521,0.07783212695504749,0.07312885053501732,0.06940978847858768,0.07387262718351212,0.07150933253876358,0.0735514549674338,0.07167679180822274,0.07514739187328719,0.07475663867671951,0.0762715505089224,0.07230632869080647,0.07498261481316267,0.0734383327887455
0.44700002670288086,black.png,0.059028498414575865,0.07578135440127307,0.07620281889472233,0.07784768376918838,0.07314865418060472,0.06941551052516824,0.07389392839597803,0.07152019548656886,0.07357490194736742,0.07169545551484292,0.0751657873589739,0.07477393892692792,0.07629110828532079,0.07232599822592714,0.07500121146454948,0.07345650475698766
0.44700002670288086,black.png,0.059068508037150864,0.07577907452333862,0.07619756623477533,0.07784491215287592,0.07314270861657961,0.0694226854351384,0.07388534532610719,0.0715226765302034,0.0735811604358149,0.07167775293323432,0.07514866592272114,0.07475677278718625,0.07627356216592338,0.0723304685748182,0.0749827489236294,0.0734366787596558
0.44700002670288086,black.png,0.059026978495952905,0.07577310660756906,0.07619392290042912,0.07783927951327319,0.07313982524154487,0.06940949790590976,0.07388404892492878,0.07151371348067682,0.07355393601106834,0.0716951202386761,0.07516435684732876,0.07477391657518347,0.07628938720099773,0.0723112684263311,0.07500094324361602,0.07345766704769933
0.44700002670288086,black.png,0.059047832673529706,0.07579031745079964,0.07621131255761535,0.07785818908908237,0.07315819837548714,0.06942948036545281,0.07390197502398194,0.07153445589953135,0.07359687371216699,0.07169033696536266,0.07516066880949364,0.07476823923209182,0.07628603443932944,0.07234387962149139,0.07499513179005764,0.07344883810863949
0.44700002670288086,black.png,0.05904671508630694,0.07577156433720164,0.07618998899340498,0.07783659730393855,0.07313524313393154,0.06941327535072271,0.07387875156149287,0.07151512164057751,0.07355704290354763,0.07168199976468083,0.07515152694601142,0.07476104197037721,0.07627617732002465,0.07231162605424238,0.07498715221728709,0.07344295959984774
0.44700002670288086,black.png,0.05901586967895862,0.07578669646819788,0.07620822801688051,0.07785298113262429,0.07315477855858547,0.06942015968801495,0.0739001421809366,0.07152573871919378,0.07358062399394798,0.07170155754107922,0.07517052592879843,0.07477937040083056,0.07629609272433432,0.07233078149924058,0.07500670999368549,0.07346229385880158
0.44700002670288086,black.png,0.05907791812156655,0.07578325429955177,0.07620158954877729,0.07784891311513342,0.07314588256429226,0.0694267311008848,0.07388974861976488,0.07152786213491703,0.07358708364809556,0.07168255855829221,0.07515215279485617,0.07476108667386612,0.07627733961073632,0.07233516244115382,0.07498677223763135,0.0734410820533135
0.44700002670288086,black.png,0.05904649156886239,0.07577677229365973,0.07619680627546385,0.07784173820516327,0.07314054049736744,0.06941182248733312,0.07388568060227402,0.07151597100686681,0.07355601472330268,0.07169619312240995,0.07516460271651777,0.07477494475542841,0.07628909662831981,0.0723098155629415,0.07500125616803839,0.07345791291688834
0.44700002670288086,black.png,0.05906879860982878,0.07579572657295783,0.07621571585127304,0.07786183242342859,0.073159762997599,0.06943155907768715,0.07390353964609381,0.0715363781495545,0.0736047191744708,0.07169740011661054,0.07516739668457469,0.07477557060427316,0.07629267290743266,0.07234906522620502,0.07500210553432769,0.07345567774244281
0.44700002670288086,black.png,0.059080980310556926,0.07577871689542734,0.07619595690917455,0.07784236405400802,0.07313783593628835,0.06941747747868031,0.07388040559058257,0.07152008372784659,0.0735632566885062,0.07168758770079466,0.07515680195770287,0.07476683107219113,0.07628098294508254,0.07231580583045552,0.07499231547025627,0.07344832401851702
0.44700002670288086,black.png,0.05904671508630694,0.07579313377060101,0.07621415122916117,0.07785939608328296,0.07315851129990951,0.06942436181597254,0.07390503721297231,0.07153251129776374,0.07358677072367319,0.07170828541616027,0.07517691852771265,0.07478594181370042,0.0763029547098821,0.07233536360685391,0.07501303553736634,0.07346897703039372
0.44700002670288086,black.png,0.059088646958905096,0.07579094329964439,0.07620874210700299,0.07785660211522605,0.07315144814866163,0.06943202846432071,0.07389513539017861,0.07153418767859789,0.07359627021506669,0.07169107457292968,0.07516040058856018,0.07476926741233676,0.07628527448001796,0.07234300790345763,0.07499448358946843,0.07344924044003968
0.44700002670288086,black.png,0.059048793798541284,0.0757859365088864,0.07620561286277924,0.07785101417911222,0.07314787186954878,0.06941904210079218,0.07389381663725575,0.07152560460872705,0.07356538010422946,0.07170625140741484,0.07517454924280038,0.07478431013635518,0.0762985067127355,0.07231942681305728,0.07501068860419853,0.07346768062921531
0.44700002670288086,black.png,0.059075124153509635,0.07580348262828382,0.07622286840949874,0.0778690296851432,0.07316566385813521,0.06943716936554543,0.07391075925955287,0.07154279310021318,0.07361073179372928,0.07170437386088059,0.07517367752476663,0.0747814491130649,0.07629873023018005,0.07235498843848567,0.07500791698788607,0.07346160095472347
0.44700002670288086,black.png,0.0590755935401432,0.07578564593620848,0.0762029306534446,0.07784933779827807,0.07314411677648029,0.06942393713282789,0.07388840751509756,0.0715270798238611,0.07357181740663259,0.07169585784624312,0.07516460271651777,0.0747742965548392,0.07628907427657536,0.07232362894101488,0.0749998480081377,0.07345596831512073
0.44700002670288086,black.png,0.05904354113859429,0.07580059925324908,0.07622096851122004,0.07786572162696381,0.0731643674569568,0.069429882696853,0.07391100512874188,0.07153825569608875,0.07359209043885355,0.07171418627669647,0.07518281938824885,0.07479164150853652,0.07630874381169603,0.07234005747318953,0.07501864582522462,0.07347422969034072
0.44700002670288086,black.png,0.05908732820598223,0.07579700062239178,0.07621415122916117,0.07786151949900622,0.07315623142197507,0.06943672233065633,0.07390125976815937,0.07154093790542339,0.0736028192761921,0.071697668337544,0.07516668142875212,0.07477559295601761,0.07629168943067663,0.07234964637156086,0.07500074207791592,0.0734552307075537
0.44700002670288086,black.png,0.05904939729564158,0.0757936925642124,0.07621251955181593,0.07785709385360406,0.07315442093067419,0.06942561351366204,0.07389918105592502,0.0715304772890183,0.07357114685429893,0.07171224167492886,0.07518042775159213,0.07479027805212475,0.07630472049769407,0.07232320425787023,0.07501683533392374,0.07347340267579587
0.44700002670288086,black.png,0.05907105613601877,0.07580891410218646,0.07622805401421237,0.07787410353113455,0.0731709165180822,0.06944318198480391,0.07391598956775541,0.07154914099563849,0.0736169679304323,0.071710922922006,0.07517948897832501,0.07478779700849021,0.07630518988432763,0.07236079989204405,0.07501433193854475,0.07346835118154897
0.44700002670288086,black.png,0.059085227142003434,0.07579291025315646,0.07620999380469248,0.0778564233012704,0.07315102346551698,0.06943298958933229,0.07389640943961256,0.07153550643152075,0.07357999814510323,0.07170350214284683,0.0751716435160212,0.07478162792702055,0.07629653975922343,0.07233104972017404,0.07500762641520815,0.0734631879285798
0.44700002670288086,black.png,0.059054985231755404,0.07580755064577469,0.07622767403455663,0.07787200246715575,0.07317078240761547,0.06943819754579038,0.0739178000590563,0.07154502827465871,0.07359964532847944,0.07172283640180067,0.07519053074008593,0.07479957637781816,0.07631587401817727,0.07234759001107097,0.07502662539799516,0.07348220926311126
0.44700002670288086,black.png,0.059102505040467386,0.07580692479692994,0.07622360601706576,0.0778702813828327,0.07316506036103491,0.06944756292671715,0.07390910523046318,0.07154920805087185,0.07361048592454027,0.07170479854402524,0.07517347635906653,0.0747824549415654,0.07629828319529094,0.07235731301990903,0.0750078499326527,0.0734619362308903
0.44700002670288086,black.png,0.0590623389556812,0.07579901227939276,0.07621786161874075,0.07786221240308433,0.07315969594236564,0.06943231903699863,0.0739055960065837,0.07153716046061044,0.07357791943286889,0.07171870132907644,0.07518717797841763,0.07479691652022798,0.07631171659370858,0.07233140734808532,0.07502365261598261,0.07347981762645454
0.44700002670288086,black.png,0.059093787860129816,0.07581702778542374,0.07623728528467241,0.07788299952542777,0.07317961134667532,0.06945261442096405,0.07392640548067159,0.07155919928064337,0.07362512631715849,0.07171932717792119,0.07518912258018524,0.07479684946499461,0.07631442115478768,0.0723702770316931,0.07502342909853806,0.07347702365839763
0.44700002670288086,black.png,0.059112272752794355,0.07579977223870424,0.07621799572920748,0.07786431346706313,0.0731589136313097,0.06944005274058017,0.07390351729434935,0.07154339659731347,0.07358659190971754,0.07170949241036086,0.07517926546088045,0.07478873578175733,0.07630346880000458,0.07233916340341132,0.07501442134552257,0.07346998285889421
0.44700002670288086,black.png,0.05907997448205644,0.0758134962097998,0.07623487129627124,0.07787942324631492,0.07317849375945255,0.06944412075807103,0.07392421500971497,0.07155106324566164,0.07360606027913812,0.0717290278350148,0.0751981973884341,0.07480661717732158,0.07632333950082534,0.07235454140359657,0.07503418028762106,0.07348904889691459
0.44700002670288086,black.png,0.05912758369774624,0.07581262449176604,0.07623053505784691,0.0778774339410584,0.07317283876810536,0.06945310615934207,0.07391487198053265,0.07155651707130874,0.0736173702618325,0.071711168791195,0.07518096419345906,0.07478929457536872,0.07630530164304991,0.07236401854324562,0.07501504719436732,0.07346877586469362
0.44700002670288086,black.png,0.0590882446275049,0.07580401907015075,0.07622441067986616,0.07786871676072082,0.07316763081164727,0.06943770580741236,0.07391178743979782,0.07154319543161337,0.07358424497654974,0.07172574212857986,0.07519455405408788,0.07480391261624249,0.07631904796588992,0.07233833638886647,0.07503107339514177,0.07348735016433598
0.44700002670288086,black.png,0.059104941380613014,0.07582353214306023,0.07624454960162039,0.07789015208365346,0.073189021431091,0.06945952111000074,0.07393266396911907,0.07156556952781314,0.07363308353818458,0.07172699382626936,0.07519645395236658,0.0748041584854315,0.07632164076824674,0.0723782789562081,0.07503118515386405,0.07348460089976798
0.4630000591278076,black.png,0.05911495496212899,0.07580712596263003,0.07622557297057783,0.07787160013575556,0.07316778727385846,0.06944803231335071,0.07391066985257505,0.07155177850148421,0.07359584553192204,0.07171698024475338,0.07518668624003962,0.07479582128474967,0.07631001786112998,0.07234653947908157,0.07502159625549272,0.07347646486478625
0.4630000591278076,black.png,0.059085741232125906,0.07582015702964748,0.07624202385449694,0.07788550292080676,0.07318560161418934,0.0694498875081405,0.07392915474523959,0.07155685234747557,0.0736129669681748,0.07173555454439574,0.0752057969815489,0.07481356856984718,0.07632928506485046,0.07236030815366604,0.07504072934874646,0.0734949944609397
0.46399998664855957,black.png,0.0591442580991099,0.07581995586394738,0.07623858168585082,0.07788496647893983,0.0731803713059868,0.06946001284837876,0.07392251627713636,0.07156554717606868,0.07362599803519225,0.07171731552092021,0.07518892141448515,0.07479622361614986,0.07631229773906442,0.07237105934274904,0.07502197623514846,0.07347447555952973
0.46399998664855957,black.png,0.05909977812764384,0.07581081400046516,0.07623100444448047,0.07787461762125703,0.07317346461695011,0.06944311492957055,0.07391657071311125,0.07154990095494997,0.07359030229929713,0.07172869255884796,0.07519933732740132,0.07480771241279989,0.07632278070721396,0.07234045980458972,0.07503467202599907,0.07348958533878151
0.46399998664855957,black.png,0.0591173018952968,0.07582858363730713,0.07624917641272264,0.07789410834242205,0.07319306709683741,0.06946256094724666,0.07393639671044311,0.07156914580692599,0.0736394761370988,0.07173115125073805,0.07520231010941388,0.07480909822095612,0.07632649109679354,0.07238154231089858,0.07503543198531056,0.07348811012364746
0.4650001525878906,black.png,0.059136412636806086,0.07581155160803218,0.07622941747062414,0.07787504230440168,0.0731711176837823,0.06945120626106337,0.07391277091655385,0.07155539948408597,0.07359971238371281,0.0717191260122211,0.07519006135345237,0.07479883877025113,0.0763130576983759,0.07234919933667175,0.0750238537816827,0.0734783871148094
0.4650001525878906,black.png,0.05910205800557828,0.07582482854423864,0.0762466953690881,0.07789019678714237,0.07319036253575832,0.06945438020877602,0.07393422859123094,0.07156313318766751,0.0736192701601112,0.07174170127412095,0.07521245780139658,0.07482025174143932,0.0763358117742314,0.07236618666245778,0.0750468090232383,0.07350107413543154
0.4650001525878906,black.png,0.059156708020771505,0.0758265496285617,0.07624519780220959,0.07789149318832078,0.07318678625664547,0.06946656190950416,0.0739283500824392,0.07157249856859428,0.07363216711666191,0.07172319402971196,0.07519511284769927,0.07480248210459735,0.07631806448913389,0.07237644611316277,0.07502751946777338,0.07348015290262137
0.4660000801086426,black.png,0.059110417558004565,0.07581698308193482,0.07623750880211697,0.0778812337376158,0.07317941018097522,0.06944955223197367,0.07392323153295893,0.07155662883003101,0.07359638197378897,0.07173582276532921,0.07520689221702721,0.07481551317161479,0.0763296650445062,0.07234747825234869,0.07504144460456903,0.07349664849002939
0.4660000801086426,black.png,0.059136747912972916,0.0758364514513554,0.07625773713084902,0.07790282552275962,0.07320042082076321,0.06947020524385038,0.07394401865530237,0.07157902527797523,0.07364568992205738,0.07173830380896375,0.07521049084788452,0.07481703309023775,0.07633388952420825,0.07238887368307992,0.075042964523192,0.0734956426615289
0.46700000762939453,black.png,0.05915431638411479,0.07581877122149125,0.07623712882246123,0.07788286541496103,0.07317831494549691,0.06945771061869986,0.07392081754455776,0.07156337905685652,0.07360679788670514,0.07172605505300224,0.07519821974017855,0.07480628190115475,0.0763206125880018,0.07235700009548665,0.07503122985735296,0.07348565143175738
0.46700000762939453,black.png,0.05911801715111937,0.07583238343386453,0.07625395968603607,0.07789752815932371,0.07319760450096184,0.06946077280769024,0.07394133644596773,0.07157106805694914,0.07362371815725781,0.07174659630615667,0.07521813514448823,0.0748256608635975,0.07634131030336741,0.07237137226717141,0.07505188286922966,0.07350621503665626
0.46700000762939453,black.png,0.05916569342204254,0.07583218226816443,0.07625056222087886,0.0778966340895455,0.0731927765241595,0.06947109931362859,0.07393277572784135,0.07157493490873991,0.07363817973592039,0.07172768673034748,0.07520056667334636,0.07480773476454435,0.07632325009384752,0.07238172112485422,0.07503257096202028,0.07348455619627907
0.4680001735687256,black.png,0.059124230936077944,0.07582176635524826,0.07624168857833011,0.07788561467952904,0.07318385817812183,0.06945330732504217,0.07392687486730515,0.07155969101902139,0.07359998060464627,0.07173776736709682,0.07520973088857304,0.0748183071396717,0.0763324143090742,0.07235083101401699,0.07504448444181495,0.07349917423715284
0.9160001277923584,black.png,0.0591480578956673,0.07584031830314616,0.07626041934018365,0.07790637945012802,0.07320319243707567,0.0694736921159854,0.07394725965824839,0.07158275801929927,0.0736495791255926,0.07174158951539868,0.07521350833338598,0.07482058701760615,0.07633710817540981,0.07239200292730366,0.07504689843021613,0.0734989954231972
0.9160001277923584,black.png,0.05916506757319779,0.07582304040468221,0.07624028041842942,0.07788729106036318,0.07318012543679779,0.0694626950577134,0.07392285155330319,0.07156755883306966,0.07361220700886333,0.07173088302980458,0.07520213129545823,0.07481126634016828,0.07632497117817058,0.07236211864496692,0.07503630370334431,0.07349068057425982
0.9160001277923584,black.png,0.0591379549071735,0.07583944658511241,0.07626035228495029,0.07790535126988307,0.07320144900100815,0.069469646450239,0.07394793021058205,0.07157904762971969,0.07363118363990588,0.07175424060276038,0.07522551122015848,0.07483350632590131,0.07634951339358251,0.07237872599109721,0.07506015301467812,0.07351428401640463
0.9160001277923584,black.png,0.05918717344846409,0.07583949128860132,0.07625673130234853,0.07790461366231605,0.07319608458233888,0.06947923534861032,0.07393977182385586,0.07158452380711124,0.07364419235517887,0.07173374405309486,0.07520610990597128,0.07481363562508055,0.07633026854160649,0.0723881807790018,0.07503860593302321,0.0734909934986822
0.9160001277923584,black.png,0.05915167887826906,0.07583023766639682,0.07624832704643333,0.07789381776974413,0.07318832852701289,0.06946121984257934,0.07393454151565332,0.07156789410923649,0.07360959185476205,0.07174787035559062,0.0752196550631112,0.07482809720374313,0.0763438136987464,0.07236035285715495,0.07505425215414192,0.07350894194947981
0.9160001277923584,black.png,0.05916234066037424,0.07585077891955125,0.07626902476179895,0.0779155883688436,0.07321036734704582,0.0694816940405004,0.07395577567288586,0.07158953059786922,0.07365691049777394,0.07174945732944694,0.07522168907185663,0.0748283654246766,0.07634658531505886,0.07240000485181866,0.0750543639128642,0.07350666207154537
0.9320001602172852,black.png,0.05918250193387293,0.07583247284084235,0.0762479917702665,0.07789549415057828,0.07318774738165705,0.06946937822930553,0.07393217223074106,0.07157565016456248,0.07361817492463289,0.07173586746881812,0.07520834508041681,0.07481663075883756,0.0763324143090742,0.07236777363631411,0.0750415116598024,0.07349555325455108
0.9320001602172852,black.png,0.05915158947129124,0.07584400634098129,0.07626292273556265,0.07790861462457355,0.073205025280121,0.06947004878163919,0.073951707655395,0.07158041108613146,0.07363361998005151,0.07175685575686165,0.07522884163008232,0.07483618853523595,0.07635418490817367,0.07238093881379828,0.07506270111354603,0.07351687681876144
0.9320001602172852,black.png,0.05920449605041695,0.07584367106481446,0.07625939115993871,0.077908391107129,0.0732005772829744,0.06948035293583309,0.07394439863495811,0.07158823419669082,0.07364859564883657,0.07173736503569662,0.07521008851648432,0.0748170107384933,0.07633514122189775,0.07239256172091504,0.07504200339818042,0.07349445801907277
0.9320001602172852,black.png,0.05916348059934146,0.07583314339317601,0.0762502939999454,0.07789705877269015,0.07319224008229257,0.0694627397612023,0.07393668728312103,0.07157303501046121,0.0736114694012963,0.07174963614340259,0.07522168907185663,0.074829661825855,0.0763461159284253,0.0723635268048676,0.07505557090706479,0.07351093125473633
0.9320001602172852,black.png,0.05918268074782857,0.07585122595444035,0.07626893535482113,0.07791675065955528,0.07321273663195808,0.0694810458399112,0.07395584272811923,0.07159288335953752,0.07365854217511918,0.07175017258526951,0.07522262784512375,0.07482887951479907,0.07634790406798173,0.07240114479078588,0.07505523563089796,0.07350748908609021
0.9320001602172852,black.png,0.05919611414624621,0.07583542327111045,0.07624982461331184,0.07789846693259084,0.07319308944858187,0.06947098755490631,0.07393438505344213,0.07157728184190772,0.0736247239857583,0.07174044957643146,0.07521234604267431,0.07482051996237278,0.07633650467830952,0.0723729815927722,0.07504564673252663,0.07349982243774204
0.9320001602172852,black.png,0.05916654278833184,0.07584829787591671,0.07626623079374203,0.07791270499380887,0.07321137317554631,0.06947362506075204,0.07395412164379617,0.0715851943594449,0.0736392749713987,0.07176161667843063,0.07523270848187309,0.07484043536668246,0.07635758237333087,0.07238596795630073,0.07506699264848145,0.07352136951939696
0.9320001602172852,black.png,0.05921415200402164,0.07585057775385115,0.07626576140710847,0.0779149401682544,0.07320907094586741,0.06948741608708096,0.07395000892281639,0.07159473855432731,0.07365641875939592,0.07174308708227718,0.07521500590026449,0.07482273278507386,0.07633999155044455,0.07239955781692956,0.07504797131394998,0.0735004929900757
0.9320001602172852,black.png,0.05917771866055949,0.07583902190196776,0.07625471964534755,0.07790159617681458,0.07319802918410649,0.06946852886301623,0.07394191759132357,0.0715759407372404,0.07361846549731081,0.07175544759696097,0.07522546651666957,0.07483513800324655,0.07635056392557191,0.07236889122353687,0.07506122589841198,0.0735166980048058
0.9320001602172852,black.png,0.059189810954309814,0.07585949609988882,0.07627657965142484,0.07792450671488127,0.07322004565239497,0.06949016535164897,0.07396422463228997,0.0716012429119638,0.07366786285255704,0.07175880035862926,0.07522944512718262,0.07483761904688109,0.07635534719888534,0.07240901260483415,0.0750636175350687,0.0735162956734056
0.9320001602172852,black.png,0.059201903248060135,0.07584362636132555,0.07625854179364941,0.07790705000246168,0.07319903501260698,0.06947995060443289,0.07394209640527921,0.07158602137398974,0.07363301648295122,0.07174775859686834,0.07521882804856635,0.0748284101281655,0.07634242789059018,0.07238082705507601,0.07505295575296352,0.07350704205120111
0.9320001602172852,black.png,0.05916086544524019,0.07585511515797558,0.07627362922115674,0.07791943286888992,0.07321546354478163,0.0694799953079218,0.07396002250433237,0.07159181047580367,0.07364526523891272,0.07176771870466693,0.07523914578427622,0.0748475655731637,0.07636397497224509,0.07239180176160356,0.07507354170960685,0.07352753860086662
0.9320001602172852,black.png,0.059206708873118026,0.0758556068963536,0.07627117052926666,0.0779202375316903,0.07321246841102462,0.06949123823538282,0.07395499336182992,0.07160092998754143,0.07366133614317609,0.07174744567244597,0.07521987858055575,0.07482785133455412,0.07634519950690263,0.07240485518036546,0.0750526651802856,0.0735048962837334
0.9320001602172852,black.png,0.05917007436395578,0.07584333578864763,0.0762603969884392,0.07790709470595059,0.07320198544287508,0.0694725968805071,0.07394632088498126,0.07158358503384411,0.07362168414851238,0.07175877800688481,0.07523080858359439,0.07484001068353781,0.0763551683849297,0.07237349568289467,0.07506553978509185,0.0735204978013632
0.9320001602172852,black.png,0.05918641348915261,0.07586206655050118,0.07628073707589353,0.07792815004922748,0.07322310784138535,0.06949172997376084,0.07396596806835748,0.07160323221722033,0.07366868986710189,0.0717600297045743,0.07523337903420675,0.07484045771842691,0.07635827527740899,0.07241140424149087,0.0750661656339366,0.07351792735075084
0.9320001602172852,black.png,0.05920646300392902,0.07584452043110376,0.07625990525006118,0.07790861462457355,0.07320084550390786,0.06948008471489962,0.07394218581225703,0.07158816714145745,0.0736350281399522,0.07174889853583556,0.07522218081023464,0.0748309135235445,0.07634667472203668,0.0723847833138446,0.07505523563089796,0.07350912076343545
0.9320001602172852,black.png,0.05917812099195969,0.07586014430047802,0.0762783007357479,0.0779250431567482,0.07322091737042873,0.06948538207833553,0.07396632569626876,0.07159958888287411,0.07364948971861478,0.0717720325913468,0.07524453255468995,0.0748526170674106,0.07637000994324802,0.07239819436051778,0.07507823557594247,0.07353281361255808
0.9320001602172852,black.png,0.059232391027497173,0.07586001019001129,0.07627497032582406,0.07792435025267008,0.07321626820758202,0.0694955521220627,0.07395917313804307,0.07160506506026566,0.07366562767811151,0.0717509772480699,0.07522477361259146,0.07483223227646736,0.07634982631800488,0.07240972786065672,0.07505637556986518,0.07350900900471317
0.9320001602172852,black.png,0.05919993629454807,0.07585001896023977,0.07626605197978639,0.07791261558683105,0.0732069251783997,0.0694786989067434,0.07395007597804976,0.07158917296995794,0.07362845672708233,0.071764432998232,0.07523744705169762,0.07484613506151856,0.07636118100418818,0.07238060353763145,0.07507043481712757,0.07352628690317713
0.9320001602172852,black.png,0.05921488961158867,0.0758695096814048,0.076286749695152,0.07793420737197487,0.07322900870192155,0.06949774259301932,0.07397191363238259,0.07161000479579029,0.07367579772183867,0.07176590821336605,0.07524062099941027,0.07484707383478569,0.07636638896064626,0.07241840033750538,0.07507215590145062,0.07352438700489843
0.9320001602172852,black.png,0.05923154166120787,0.07585169534107392,0.07626665547688669,0.07791502957523222,0.07320717104758871,0.06948656672079166,0.07394989716409411,0.07159654904562819,0.07364171131154433,0.07175448647194939,0.07522886398182678,0.07483719436373644,0.0763526649895507,0.07239200292730366,0.07506039888386713,0.07351508867920502
0.9320001602172852,black.png,0.059191375576421686,0.07586459229762463,0.0762835533956949,0.07792911117423906,0.07322552182978652,0.06948949479931531,0.07396936553351469,0.07160274047884231,0.07365237309364951,0.07177543005650401,0.0752494052349812,0.07485688625060156,0.07637396620201661,0.07240161417741944,0.07508190126203314,0.07353596520852627
0.9320001602172852,black.png,0.05923999062061198,0.07586394409703542,0.07628064766891571,0.07792893236028342,0.07322174438497357,0.06949841314535297,0.07396364348693413,0.07160868604286742,0.0736702321374693,0.07175475469288285,0.07523016038300519,0.07483703790152525,0.07635487781225178,0.07241466759618134,0.07506109178794525,0.07351247352510375
0.9320001602172852,black.png,0.05920494308530606,0.07585158358235164,0.07626951650017696,0.0779153424996546,0.07321101554763502,0.06947945886605487,0.07395376401588488,0.07159107286823664,0.07363379879400715,0.07176899275410088,0.07524337026397827,0.07485143242495447,0.07636746184438012,0.07238614677025637,0.07507644743638604,0.07353066784509037
0.9320001602172852,black.png,0.05921350380343244,0.07587587992857456,0.07629428223303344,0.07794111406101156,0.07323772588225912,0.06950303995645522,0.07397913324584166,0.0716172467609938,0.0736820338585417,0.071772434922747,0.07524772885414706,0.07485368995114446,0.07637329564968295,0.072425843468409,0.07507939786665414,0.0735308019555571
0.9320001602172852,black.png,0.05923516264380963,0.07585708211148764,0.07627255633742289,0.07792088573227951,0.07321445771628114,0.06949166291852747,0.07395503806531883,0.07160472978409883,0.07364848389011429,0.07176000735282985,0.075235256580741,0.07484242467193898,0.07635914699544274,0.07239830611924006,0.07506737262813719,0.07352027428391865
0.9320001602172852,black.png,0.05920246204167152,0.07586962144012707,0.07628838137249724,0.07793387209580804,0.07323292025720123,0.06949251228481677,0.07397464054520614,0.07160837311844505,0.07365711166347404,0.07177940866701707,0.07525459083969484,0.07486086486111461,0.07637924121370807,0.07240545867746576,0.07508746684640251,0.07354052496439516
0.9320001602172852,black.png,0.059261917681922634,0.07586946497791588,0.07628552034920696,0.07793380504057468,0.07322916516413273,0.06950241410761047,0.07396818089105855,0.07161691148482698,0.07367733999220609,0.07176078966388579,0.07523746940344207,0.07484300581729482,0.07636187390826629,0.07242137311951793,0.07506831140140431,0.07351915669669588
0.9320001602172852,black.png,0.05922854652745086,0.0758600548935002,0.07627617732002465,0.07792180215380218,0.07321995624541715,0.0694848456364686,0.07395926254502089,0.07159873951658481,0.07363793386673138,0.07177207729483571,0.07524788531635825,0.07485500870406732,0.07637132869617089,0.07238934306971348,0.07508024723294345,0.07353437823466995
0.9320001602172852,black.png,0.05924763491721569,0.07587914328326503,0.07629671857317907,0.0779431927732459,0.07324145862358315,0.06950426930240027,0.07398329067031034,0.07162216414477397,0.0736847384196208,0.071774938318126,0.07525159570593783,0.07485672978839038,0.07637593315552868,0.07242841391902136,0.07508154363412185,0.07353399825501421
0.9320001602172852,black.png,0.059266008051157955,0.07586329589644622,0.07627803251481444,0.07792517726721493,0.07322069385298417,0.06949508273542913,0.07396125185027741,0.07160696495854436,0.07365264131458298,0.07176333776275369,0.07523979398486542,0.07484644798594094,0.07636209742571085,0.07240237413673092,0.075069719561305,0.07352376115605368
0.9320001602172852,black.png,0.05922206452155882,0.07587581287334119,0.0762928070178994,0.07793706839526515,0.07323734590260338,0.0694955521220627,0.07397884267316374,0.07161165882487998,0.07366088910828698,0.07178443780951951,0.07525968703743065,0.07486600576233933,0.076382526920143,0.07240914671530088,0.07509075255283744,0.07354521883073077
0.9320001602172852,black.png,0.05924689730964867,0.07587596933555238,0.07629113063706525,0.07793858831388811,0.07323508837641339,0.06950742089836846,0.07397571342894,0.07162062187440656,0.07368022336724082,0.07176575175115486,0.07524091157208819,0.07484747616618588,0.07636417613794519,0.07242642461376483,0.07507092655550558,0.07352443170838734
0.9320001602172852,black.png,0.0591933201781893,0.07586269239934593,0.07628013357879324,0.07792638426141552,0.07322511949838632,0.06949038886909352,0.07396800207710291,0.07160696495854436,0.0736430300644672,0.07177911809433915,0.07525298151409406,0.07486077545413679,0.07637506143749492,0.07239629446223908,0.07508489639579015,0.07354177666208465
0.9320001602172852,black.png,0.05919262727411118,0.0758844629984454,0.07630299941337101,0.07795018886926042,0.07324992993473171,0.06951084071527013,0.07399142670529207,0.07162916024078848,0.07369046046620135,0.0717835437397413,0.07525731775251839,0.07486354707044925,0.07638064937360875,0.0724351417941024,0.07508811504699171,0.07354231310395158
0.9320001602172852,black.png,0.05920357962889428,0.07586608986450313,0.07628131822124937,0.07793042992716193,0.07322766759725423,0.06949879312500871,0.07396715271081361,0.07161346931618086,0.07365630700067365,0.07176771870466693,0.07524138095872175,0.07484930900923122,0.07636352793735598,0.07240552573269912,0.07507269234331755,0.07352827620843365
0.9320001602172852,black.png,0.05915547867482646,0.07587672929486386,0.07629553393072294,0.07794238811044552,0.07324456551606244,0.06949803316569723,0.07398570465871152,0.07161747027843836,0.07366866751535743,0.07179217151310105,0.07526543143575566,0.0748726218786981,0.07638793604230118,0.07241582988689302,0.0750977262971075,0.07355380190060161
0.9320001602172852,black.png,0.05919636001543522,0.0758819596030664,0.07629707620109036,0.07794705962503667,0.07324590662072976,0.06951278531703774,0.07398295539414351,0.07162748385995434,0.07368829234698919,0.07177375367566986,0.07524766179891369,0.0748545169656893,0.07636987583278129,0.07243270545395677,0.0750781685207091,0.07353247833639125
0.9320001602172852,black.png,0.059155657488782105,0.07586980025408271,0.07628451452070648,0.07793291097079647,0.07323381432697944,0.06949447923832884,0.0739709078038821,0.0716106976998684,0.07364826037266974,0.07178347668450794,0.07525602135133998,0.07486464230592756,0.07637756483287392,0.07239991544484084,0.075088718544092,0.07354613525225344
0.9320001602172852,black.png,0.05915943493359505,0.07589107911480417,0.0763061063058503,0.07795490508734049,0.07325681427202395,0.06951316529669348,0.07399127024308089,0.0716288026128772,0.07369566842265944,0.07178939989678859,0.0752624139502542,0.07486917971005198,0.07638418094923269,0.07243777929994813,0.07509354652089435,0.07354778928134313
0.9479999542236328,black.png,0.05916953792208885,0.07587511996926308,0.07628645912247409,0.07793702369177624,0.07323589303921378,0.06950449281984482,0.07397063958294864,0.07161800672030529,0.07366294546877687,0.071774938318126,0.07524703595006894,0.0748559698290789,0.07636949585312555,0.07241296886360274,0.07507897318350949,0.07353558522887053
0.9479999542236328,black.png,0.05913357396526026,0.07588448535018985,0.07629946783774708,0.07794813250877053,0.07325091341148775,0.06950471633728937,0.07398988443492466,0.07162658979017612,0.07367262377412602,0.0717978488561927,0.07526911947359079,0.07487769572468946,0.07639204876328096,0.07242148487824021,0.07510192842506509,0.07355950159543771
0.9479999542236328,black.png,0.0591729130355016,0.07588857571942517,0.07630071953543657,0.07795213347102803,0.0732509357632322,0.06951852971536275,0.07398581641743379,0.07163421173503538,0.0736942379110143,0.0717795427774838,0.07525197568559357,0.07485994843959194,0.076374524995628,0.07243844985228179,0.07508304120100036,0.07353777569982715
0.9479999542236328,black.png,0.05912807543612426,0.07587764571638653,0.07629008010507585,0.07793903534877722,0.07324034103636039,0.06950055891282068,0.07397569107719554,0.0716159503598154,0.07365753634661869,0.07179257384450125,0.07526353153747696,0.07487351594847631,0.07638489620505526,0.07240856556994504,0.07509665341337364,0.07355478537735764
0.9479999542236328,black.png,0.05913183052919275,0.075899416315486,0.0763128118291869,0.07796250468045529,0.07326387742327183,0.06952132368341966,0.07399819928386203,0.07163919617404892,0.07370103284132871,0.07179507723988024,0.07526628080204496,0.07487463353569908,0.07638885246382385,0.07244600474190768,0.07509828509071888,0.07355411482502398
0.9479999542236328,black.png,0.05914240290432011,0.07587947855943186,0.07628934249750882,0.07794075643310028,0.07323866465552624,0.06950936550013607,0.0739723606672717,0.07162392993258594,0.07366924866071327,0.07177976629492835,0.07525092515360417,0.07486079780588124,0.07637271450432712,0.0724189367793723,0.07508330942193382,0.07354014498473942
0.9479999542236328,black.png,0.059090882133350627,0.07589136968748209,0.07630489931164972,0.07795338516871753,0.07325612136794583,0.06950929844490271,0.07399292427217058,0.07162871320589938,0.07367915048350697,0.07180245331555049,0.0752740145056265,0.074882926032892,0.0763966308708943,0.07242546348875326,0.07510753871292337,0.07356348020595076
0.9479999542236328,black.png,0.05912657786924575,0.07589599649858433,0.07630655334073941,0.07795785551760859,0.0732572389551686,0.0695227094915759,0.07399028676632485,0.0716378550693816,0.0737017928006402,0.07178557774848673,0.07525774243566304,0.0748661175210616,0.07638029174569747,0.07244486480294046,0.07508950085514794,0.07354398948478573
0.9479999542236328,black.png,0.05909573246189743,0.07588289837633352,0.07629383519814434,0.07794325982847927,0.07324454316431799,0.06950447046810036,0.07397879796967483,0.07162350524944129,0.07366278900656568,0.07179483137069123,0.07526639256076724,0.07487628756478877,0.07638860659463484,0.07241066663392384,0.07510036380295322,0.07355728877273664
0.9479999542236328,black.png,0.05910134274975571,0.0759040654783327,0.07631656692225539,0.07796639388399051,0.07326881715879645,0.06952398354100985,0.07400380957172031,0.07164462764795156,0.07370950415247728,0.07180102280390535,0.07527332160154838,0.0748812720038023,0.07639698849880558,0.07245112329138795,0.0751057729251114,0.07356037331347147
0.9479999542236328,black.png,0.05912306864536627,0.07588658641416865,0.07629584685514532,0.07794730549422568,0.07324621954515213,0.06951506519497218,0.07398002731561987,0.07163159658093411,0.07367611064626105,0.07178358844323021,0.07525555196470642,0.07486504463732775,0.0763777212950851,0.07242296009337426,0.07508815975048062,0.07354419065048583
0.9479999542236328,black.png,0.05908258963615771,0.07589601885032879,0.07630836383204029,0.07795718496527493,0.07326052466160353,0.06951298648273783,0.07399605351639432,0.0716343011420132,0.07368574424812128,0.07180871180399798,0.0752803176975629,0.07488911746610612,0.07640315758027524,0.07243187843941193,0.0751137301461375,0.0735704092467319
0.9479999542236328,black.png,0.05912698020064595,0.0759015620829537,0.07631126955881948,0.07796321993627786,0.07326267042907124,0.06952872211083437,0.07399569588848304,0.07164621462180788,0.07370764895768749,0.07179100922238937,0.07526353153747696,0.0748715713467087,0.07638634906844485,0.07245125740185468,0.07509493232905058,0.07354951036566619
0.9479999542236328,black.png,0.059099465203221464,0.07588908980954764,0.07629949018949153,0.07794971948262686,0.07325106987369893,0.06951148891585933,0.0739856599552226,0.07163121660127837,0.07366868986710189,0.07180093339692753,0.07527285221491482,0.07488225548055834,0.07639515565576024,0.07241813211657191,0.07510608584953378,0.07356374842688422
1.4010000228881836,black.png,0.059106371892258154,0.07590860288245713,0.07632052318102397,0.07797111010207058,0.07327380159780998,0.06952881151781219,0.07400883871422276,0.07165169079919943,0.07371305807984567,0.07180556020802978,0.07527826133707301,0.07488551883524881,0.07640183882735238,0.07245465486701189,0.07511004210830237,0.07356500012457372
1.4010000228881836,black.png,0.059118508889497386,0.07589264373691604,0.07630136773602578,0.07795331811348416,0.073252790958022,0.06952018374445244,0.07398476588544439,0.07163729627577022,0.07368335261146457,0.07179074100145591,0.07526341977875468,0.074872174843809,0.07638545499866664,0.07242901741612165,0.07509520054998405,0.07355118674650034
1.4010000228881836,black.png,0.05908196378731296,0.07590267967017647,0.0763149575966546,0.07796413635780053,0.0732677442750626,0.06951899910199631,0.0740020661356528,0.07163991142987149,0.07369054987317918,0.07181492558895655,0.07528709027613285,0.07489546536153142,0.0764096842896562,0.07243726520982566,0.07511978746888488,0.07357677949390166
1.4010000228881836,black.png,0.0591242532878224,0.07590790997837901,0.07631819859960062,0.07797066306718148,0.0732698900425303,0.06953527117195978,0.07400215554263062,0.07165350129050031,0.07371328159729022,0.07179644069629201,0.0752702147090691,0.07487753926247827,0.07639303224003699,0.07245628654435712,0.07510105670703134,0.07355541122620239
1.4010000228881836,black.png,0.059097699415409495,0.07589382837937217,0.07630469814594962,0.07795499449431831,0.07325647899585712,0.06951522165718337,0.07399017500760258,0.07163459171469112,0.07367246731191483,0.07180386147545118,0.07527730021206143,0.07488585411141564,0.07639980481860695,0.07242193191312932,0.07511010916353573,0.0735670564850636
1.4010000228881836,black.png,0.05910867412193705,0.07591340850751502,0.0763259099514377,0.07797649687248431,0.07327941188566826,0.06953223133471385,0.07401330906311382,0.07165381421492269,0.0737169472833809,0.07180882356272025,0.07528340223829773,0.07488969861146196,0.07640731500474393,0.07245865582926939,0.07511487008510472,0.07356875521764221
1.4010000228881836,black.png,0.05913200934314839,0.0758950130218283,0.07630463109071625,0.07795711791004156,0.07325616607143474,0.06952308947123163,0.07398811864711269,0.0716425042322283,0.07368659361441059,0.0717930432311348,0.0752674654445011,0.07487539349501056,0.07639028297546899,0.07243355482024608,0.0750990226982859,0.07355456185991309
1.4010000228881836,black.png,0.05909738649098712,0.07590621124580041,0.07631898091065656,0.07796831613401367,0.07327181229255346,0.06952197188400887,0.07400479304847635,0.07164402415085126,0.07369242741971342,0.07181573025175694,0.0752900183546565,0.07489745466678795,0.07641261236817984,0.07243798046564823,0.07512242497473061,0.073578612336947
1.4010000228881836,black.png,0.05915000249743491,0.07591249208599235,0.07632266894849168,0.07797517811956145,0.07327438274316582,0.06953779691908323,0.07400555300778783,0.07165589292715703,0.07371866836770395,0.07180086634169416,0.07527613792134975,0.07488268016370299,0.07639902250755101,0.0724612486316262,0.07510648818093398,0.07356064153440493
1.4010000228881836,black.png,0.059134088055382734,0.0758986116526856,0.07630930260530741,0.07795986717460957,0.073260792882537,0.0695196025990966,0.07399448889428245,0.0716412078310499,0.07367537303869402,0.07180743775456402,0.0752813682295523,0.07488949744576186,0.07640389518784227,0.0724254411370088,0.07511368544264858,0.07357096804034328
1.4010000228881836,black.png,0.059145129817143656,0.07591749887675034,0.07633008972765085,0.07798092251788646,0.07328321168222567,0.0695364558144159,0.07401773470851597,0.07166107853187066,0.07372063532121602,0.07181434444360071,0.07528883371220037,0.07489508538187568,0.07641261236817984,0.07246417671014985,0.07511992157935161,0.07357474548515623
1.4010000228881836,black.png,0.05916486640749769,0.07590267967017647,0.0763117612971975,0.07796413635780053,0.07326287159477134,0.06952901268351229,0.07399475711521591,0.07164697458111936,0.07369300856506926,0.0718001957893605,0.07527430507830442,0.0748820766666027,0.07639676498136103,0.07244102030289415,0.07510516942801111,0.07356184852860552
1.4010000228881836,black.png,0.05912496854364497,0.07591305087960373,0.0763257087857376,0.07797555809921719,0.07327851781589005,0.06952954912537922,0.07401228088286887,0.07165444006376744,0.07369792594884943,0.07182339690010511,0.0752965674157819,0.074904182541869,0.07642014490606128,0.07244671999773025,0.07512897403585601,0.07358636839227299
1.4010000228881836,black.png,0.0591678615412547,0.07591702949011678,0.07632740751831621,0.07798034137253063,0.07327952364439054,0.06954291546856349,0.0740117667927464,0.07166465481098351,0.07372126117006077,0.0718039955859179,0.07527855190975093,0.07488500474512634,0.07640195058607466,0.0724644002275944,0.07510887981759069,0.07356339079897294
1.4010000228881836,black.png,0.05913654674727282,0.07590294789110993,0.07631189540766423,0.0779621023490551,0.07326385507152737,0.06952154720086422,0.0739955617780163,0.07164002318859376,0.07368075980910775,0.07181179634473281,0.07528557035750989,0.07489365487023054,0.07640706913555492,0.0724283915672769,0.07511739583222816,0.07357499135434524
1.4010000228881836,black.png,0.059125840261678726,0.07592507611812069,0.07633784578297684,0.07798858916623463,0.07329058775789592,0.06954342955868596,0.07402341205160762,0.07166686763368459,0.07373049244052082,0.07182384393499422,0.07529795322393813,0.07490420489361345,0.07642170952817315,0.07247443616085483,0.0751289293323671,0.07358502728760567
1.4010000228881836,black.png,0.05914852728230086,0.07591032396678019,0.07631962911124576,0.07797233944801563,0.07327038178090832,0.06953813219525005,0.07400358605427576,0.07166054209000373,0.0736998929023615,0.07180491200744057,0.07527920011034013,0.07488681523642722,0.07640132473722991,0.07244745760529728,0.07510981859085782,0.07356683296761905
1.4170000553131104,black.png,0.05911701132261888,0.0759167165656944,0.07632924036136154,0.07797857558471866,0.07328099885952459,0.0695316054858691,0.07401536542360371,0.07165631761030168,0.07370402797508573,0.07182786724899617,0.07530170831700662,0.0749090328704158,0.07642392235087422,0.07245038568382092,0.07513335497776925,0.07359068227895287
1.4170000553131104,black.png,0.0591598596167397,0.07592509846986514,0.07633563296027576,0.07798787391041206,0.07328598329853812,0.06954995626806691,0.07401831585387181,0.07167140503780901,0.07373078301319874,0.0718126010075332,0.0752870679243884,0.07489378898069728,0.07640934901348936,0.07247396677422127,0.07511654646593886,0.07357215268279942
1.4170000553131104,black.png,0.05914577801773286,0.07591007809759118,0.07632045612579061,0.07797061836369257,0.07327020296695268,0.06953086787830208,0.07400403308916487,0.07165160139222161,0.07368784531210008,0.07181932888261425,0.07529308054364688,0.0749012321116009,0.0764145793216919,0.07243795811390377,0.0751242801695204,0.07358303798234915
1.4170000553131104,black.png,0.05914964486952363,0.07593209456587965,0.07634365723653522,0.07799404299188173,0.07329512516202034,0.06954964334364454,0.07402931291214382,0.07167232145933168,0.07373469456847842,0.07182842604260756,0.07530260238678484,0.07490876464948233,0.0764254869729861,0.07247736423937848,0.07513295264636906,0.07358862591846298
1.4170000553131104,black.png,0.059167749782532426,0.0759165153999943,0.07632423357060356,0.07797680979690669,0.0732746956675882,0.06954260254414112,0.07400689411245515,0.07166139145629304,0.07370771601292085,0.07181242219357756,0.0752864197237992,0.07489390073941955,0.07640872316464462,0.07245427488735615,0.07511661352117223,0.07357351613921119
1.4170000553131104,black.png,0.059125125005856156,0.07592673014721038,0.07633768932076565,0.07798704689586722,0.0732896489846288,0.06954074734935133,0.07402309912718524,0.07166324665108283,0.07371133699552261,0.07183562330432217,0.07530933026186588,0.07491638659434159,0.07643237131027833,0.07245767235251335,0.07514075340518396,0.07359794659590084
1.4170000553131104,black.png,0.05917262246282368,0.07593303333914678,0.07634139971034523,0.07799397593664836,0.07329293469106372,0.06955614770128103,0.07402535665337523,0.0716770153256673,0.07373818144061345,0.07181912771691415,0.07529388520644727,0.07490013687612258,0.07641777562114901,0.07248038172487994,0.07512338609974219,0.07357814295031344
1.4170000553131104,black.png,0.05915592570971557,0.07591854940873974,0.07632617817237117,0.0779764521689954,0.07327717671122273,0.06953623229697135,0.07400979983923434,0.07165781517718019,0.07369557901568162,0.07182549796408391,0.0752994731425611,0.07490731178609274,0.07642166482468424,0.07244412719537344,0.07513040454750115,0.07358817888357387
1.4170000553131104,black.png,0.059156283337626854,0.07593998473167238,0.07634969220753815,0.07800016736986248,0.07330221066501268,0.06955558890766965,0.0740353255314023,0.07168153037804727,0.07374064013250353,0.07183363399906564,0.07530798915719857,0.07491386084721814,0.07643219249632269,0.07248357802433705,0.07513809354759378,0.07359383387492106
1.4170000553131104,black.png,0.05917807628847078,0.07592295270239743,0.07632917330612818,0.07798172718068686,0.07328075299033558,0.06954751992792128,0.07401286202822471,0.07166843225579646,0.07371428742579071,0.07181649021106842,0.07529109123839035,0.0748981252191216,0.07641419934203617,0.07245977341649215,0.07512124033227448,0.07357751710146869
1.4170000553131104,black.png,0.05913753022402885,0.07593128990307926,0.0763406621027782,0.07799019849183542,0.07329360524339738,0.06954410011101962,0.07402642953710908,0.07167015334011952,0.07371598615836931,0.0718400042462354,0.07531368885203467,0.07492072283276592,0.07643670754870266,0.07246258973629352,0.07514484377441928,0.07360297573840328
1.4170000553131104,black.png,0.05918862631185368,0.07593900125491634,0.07634613828016976,0.07799889332042853,0.07329805324054399,0.06956108743680565,0.07402984935401075,0.07168512900890457,0.07374251767903778,0.07182297221696046,0.07529775205823803,0.07490386961744662,0.07642124014153959,0.07248529910866011,0.07512705178583286,0.07358294857537133
1.4170000553131104,black.png,0.059173047145968334,0.07592331033030872,0.07633024618986203,0.07798112368358656,0.07328135648743588,0.06954070264586242,0.07401431489161431,0.07166411836911658,0.07370083167562862,0.07182981185076379,0.07530403289842998,0.07491169272800598,0.07642575519391956,0.07244960337276499,0.07513465137894766,0.07359334213654305
1.4170000553131104,black.png,0.05918057968384977,0.07594514798464155,0.0763537155215401,0.07800448125654236,0.07330578694412553,0.06955849463444884,0.07403796303724802,0.07168278207573676,0.07374582573721716,0.07183899841773492,0.07531351003807903,0.07491956054205424,0.07643659578998038,0.07248869657381732,0.07514314504184068,0.07359971238371281
1.4170000553131104,black.png,0.05920384784982775,0.07593030642632323,0.07633587882946477,0.07798903620112374,0.07328638562993832,0.06955395723032441,0.07401775706026043,0.07167551775878879,0.07372130587354968,0.07182362041754967,0.07529819909312714,0.07490541188781404,0.0764206366444393,0.07246757417530705,0.0751276329311887,0.07358504963935013
1.4170000553131104,black.png,0.05916048546558445,0.07593920242061644,0.07634814993717073,0.07799822276809487,0.07330055663592298,0.06955145383494542,0.07403389501975716,0.07167710473264512,0.07372097059738285,0.07184550277537141,0.07531954500908196,0.07492646723109093,0.0764427872231945,0.07246699302995122,0.07515040935878865,0.07360865308149493
1.4170000553131104,black.png,0.05919725408521343,0.07594458919103017,0.07635152505058349,0.07800472712573137,0.07330375293538009,0.06956582600663018,0.0740359737319915,0.07168939819209554,0.07374942436807447,0.07182949892634141,0.07530501637518601,0.0749107316029944,0.07642877267942103,0.07249151289361869,0.07513395847486955,0.07358934117428555
1.4170000553131104,black.png,0.05918209960247273,0.07593073110946788,0.0763374658033211,0.07798870092495691,0.07328906783927296,0.06954769874187693,0.07402140039460664,0.07167254497677623,0.07370767130943194,0.07183624915316691,0.07531123016014458,0.07491830884436475,0.07643333243528991,0.07245492308794535,0.07514187099240673,0.0735996676802239
1.4170000553131104,black.png,0.05918936391942071,0.07595176410100032,0.07636075632104353,0.07801134324209014,0.07331323007502914,0.06956477547464078,0.07404491442977362,0.07169145455258542,0.07375228539136475,0.07184572629281596,0.07532099787247155,0.07492640017585757,0.07644394951390618,0.07249361395759749,0.0751506328762332,0.07360626144483821
1.4170000553131104,black.png,0.059222243335514464,0.07593716841187101,0.07634283022199037,0.07799547350352687,0.07329360524339738,0.06955965692516052,0.07402372497602999,0.07168191035770301,0.07372801139688627,0.07182891778098557,0.07530441287808572,0.07491106687916123,0.07642702924335351,0.07247197746896475,0.07513395847486955,0.07359023524406376
1.4170000553131104,black.png,0.05918900629150942,0.0759457738334863,0.07635427431515149,0.07800385540769761,0.07330699393832611,0.06955614770128103,0.07404024291518246,0.07168407847691517,0.07372823491433082,0.07185234240917474,0.0753268763812633,0.07493323980966089,0.07644996213316466,0.07247387736724345,0.0751577854344589,0.0736150680321536
1.4170000553131104,black.png,0.05922172924539199,0.0759518758597226,0.07635838703613126,0.07801080680022321,0.07331065962441678,0.06957237506775558,0.07404084641228276,0.07169798126196637,0.07375391706870998,0.07183376810953238,0.07530910674442133,0.0749145313995518,0.07643239366202279,0.07249618440820985,0.07513829471329388,0.07359361035747651
1.4170000553131104,black.png,0.0592093240272193,0.07593495558916993,0.07634093032371167,0.07799178546569174,0.07329302409804155,0.0695518114628567,0.07402470845278603,0.07167717178787848,0.07371164991994499,0.07184011600495768,0.07531462762530179,0.07492159455079968,0.07643679695568048,0.07246028750661462,0.07514531316105284,0.0736034674767813
1.4170000553131104,black.png,0.05922244450121456,0.07595636856035812,0.07636390791701173,0.07801442778282497,0.07331711927856437,0.0695680164775868,0.07404811072923073,0.07169534375612065,0.07375615224315551,0.07185008488298475,0.07532515529694024,0.07493031173113725,0.07644819634535269,0.072497860789044,0.0751548350041908,0.07361024005535126
1.4170000553131104,black.png,0.05925069710620607,0.07594505857766373,0.07634942398660469,0.0780021119716301,0.07330037782196734,0.069565915413608,0.07403083283076678,0.07168988993047355,0.07373543217604545,0.07183586917351117,0.07531154308456696,0.07491772769900891,0.07643355595273446,0.07248102992546915,0.07514057459122832,0.07359729839531164
1.4170000553131104,black.png,0.059209435785941573,0.0759525240603118,0.0763606222105768,0.07801027035835628,0.07331273833665113,0.06956216032053951,0.07404469091232907,0.07169125338688533,0.07373359933300011,0.07185737155167718,0.0753327772417995,0.074938939504497,0.0764551924413672,0.07247863828881243,0.07516290398393917,0.07362067832001189
1.4170000553131104,black.png,0.059243812768913835,0.07595779907200326,0.0763644220071342,0.0780168641229706,0.07331642637448625,0.06957677836141328,0.07404701549375242,0.07170218338992397,0.07376212015892508,0.07184109948171372,0.07531715337242524,0.07492222039964443,0.07644050734526006,0.0725037616495802,0.0751455366784974,0.07360118759884686
1.4170000553131104,black.png,0.05922286918435921,0.07594233166484018,0.07634850756508202,0.07799956387276219,0.07330026606324506,0.06955894166933795,0.0740317716040339,0.0716860677821717,0.07371954008573771,0.07184729091492784,0.07532213781143877,0.07492901532995884,0.07644408362437291,0.07246864705904091,0.07515224220183399,0.07361111177338502
1.4170000553131104,black.png,0.05922970881816254,0.07596354347032827,0.07637197689676009,0.07802242970733997,0.07332471887167917,0.06957586193989061,0.07405609030200128,0.07170508911670316,0.07376267895253646,0.07185627631619887,0.0753321290412103,0.0749370396062183,0.07645521479311165,0.07250438749842494,0.07516118289961611,0.0736169232269434
1.4320001602172852,black.png,0.05925878843769889,0.07594876896724331,0.07635369316979565,0.07800573295423185,0.07330446819120266,0.06956953639620976,0.0740334703366125,0.07169243802934146,0.07373804733014672,0.07183767966481205,0.07531373355552358,0.07491969465252098,0.0764353887957798,0.07248279571328112,0.07514229567555138,0.07359884066567905
1.4320001602172852,black.png,0.05922432204774881,0.07595415573765704,0.07636225388792203,0.07801165616651251,0.07331437001399636,0.06956452960545177,0.07404574144431847,0.07169413676192006,0.07373701914990177,0.07186184190056824,0.07533706877673492,0.0749429851702434,0.07645930516234697,0.07248427092841517,0.07516712846364122,0.07362494750320285
1.4320001602172852,black.png,0.059263906987179156,0.0759644822435954,0.0763705240333705,0.07802287674222907,0.073322304883278,0.06958348388474987,0.0740523799124217,0.07171038648013907,0.07376699283921634,0.0718461062724717,0.07532211545969432,0.07492704837644677,0.07644497769415112,0.07250930488220511,0.07515054346925538,0.07360554618901564
1.4320001602172852,black.png,0.059238247184544464,0.07594711493815362,0.0763526202860618,0.07800331896583068,0.07330417761852474,0.06956309909380663,0.07403539258663566,0.0716886158810396,0.07372325047531729,0.07185075543531841,0.07532591525625172,0.07493268101604951,0.07644792812441922,0.07247271507653177,0.07515601964664693,0.07361408455539757
1.4320001602172852,black.png,0.059239476530489506,0.07596734326688567,0.07637544141715066,0.07802576011726381,0.07332795987462519,0.06958055580622623,0.07405973363634749,0.07170982768652769,0.07376618817641595,0.07186083607206775,0.07533621941044562,0.07494121938243144,0.07645883577571341,0.07250937193743848,0.07516516151012916,0.07362143827932337
1.4320001602172852,black.png,0.059269763144226446,0.0759527252260119,0.07635664360006375,0.0780090633641557,0.07330744097321522,0.06957465494569003,0.07403680074653635,0.07169818242766647,0.073741154222626,0.0718404065776356,0.07531646046834713,0.07492222039964443,0.07643802630162552,0.07248762369008346,0.07514517905058611,0.0736013664128025
1.4320001602172852,black.png,0.0592322792687749,0.07595804494119227,0.07636513726295677,0.07801462894852507,0.07331783453438694,0.06956743533223096,0.07404978711006488,0.07169599195670985,0.07374048367029234,0.07186492644130307,0.07534106973899242,0.07494624852493388,0.07646281438622646,0.07248746722787228,0.07517119648113209,0.0736276744160264
1.4320001602172852,black.png,0.05927354058903939,0.0759687290750419,0.07637398855376107,0.07802669889053093,0.07332621643855768,0.06958670253595144,0.074055978543279,0.07171481212554122,0.0737720666852077,0.07185064367659613,0.07532768104406369,0.07493187635324912,0.07644962685699783,0.07251419991424082,0.07515610905362476,0.07361015064837344
1.4320001602172852,black.png,0.05926480105695737,0.0759523228946117,0.07635711298669731,0.0780080575356552,0.0733086479674158,0.06956667537291948,0.07404033232216028,0.0716953661078651,0.07372693851315242,0.07185446582489799,0.07533072088130961,0.07493672668179592,0.07645145970004316,0.07247723012891175,0.07516082527170483,0.07361766083451042
1.4320001602172852,black.png,0.059270098420393276,0.07597384762452217,0.07638093994628667,0.07803123629465536,0.07333314547933882,0.06958375210568334,0.0740646286683832,0.07171490153251904,0.07377050206309582,0.0718658652145702,0.07534256730587092,0.07494682967028972,0.07646368610426021,0.0725147140043633,0.07517150940555446,0.07362608744217007
1.4320001602172852,black.png,0.05930695644700008,0.0759600789499377,0.07636415378620073,0.07801637238459258,0.07331378886864053,0.06957923705330336,0.07404261220009473,0.07170551379984781,0.07375002786517476,0.07184887788878416,0.07532604936671845,0.074931183449171,0.07644582706044042,0.07249701142275469,0.0751545891350018,0.07360965890999542
1.4320001602172852,black.png,0.059269338461081796,0.0759649292784845,0.07637255804211593,0.0780215132858173,0.07332369069143423,0.06957271034392241,0.07405519623222306,0.07170341273586901,0.07374528929535024,0.07187055908090581,0.07534712706173981,0.07495221644070345,0.07646755295605098,0.07249296575700828,0.07517716439690166,0.07363312824167349
1.8700001239776611,black.png,0.059299245095162996,0.07597545695012295,0.07638138698117578,0.07803342676561198,0.07333287725840536,0.06959208930636517,0.07406205821777084,0.07171941658489901,0.0737788616155221,0.071857460958655,0.07533499006450058,0.07493916302194155,0.07645655589777897,0.072521866562589,0.07516341807406164,0.07361690087519894
1.8700001239776611,black.png,0.05927722862687452,0.07595829081038127,0.07636368439956717,0.07801467365201398,0.07331533113900794,0.0695730679718337,0.07404560733385174,0.07170122226491239,0.07373409107137813,0.07186143956916805,0.07533791814302422,0.07494396864699944,0.0764589922379246,0.07248572379180476,0.07516833545784181,0.07362505926192513
1.8700001239776611,black.png,0.05928737631885723,0.07597912263621362,0.07638706432426742,0.07803785241101413,0.07334029803756452,0.06958940709703053,0.07407122243299752,0.07172221055295593,0.0737754641503649,0.07187102846753937,0.07534817759372921,0.07495226114419236,0.07647019046189671,0.0725208160305996,0.07517790200446868,0.07363216711666191
1.8700001239776611,black.png,0.05932043454890663,0.07596327524939481,0.0763678194722914,0.07802057451255018,0.07331926504603208,0.06958254511148275,0.07404824483969746,0.07170857598883819,0.07375458762104364,0.07185247651964147,0.07532987151502031,0.07493507265270623,0.07645047622328713,0.07250141471641239,0.07515850069028147,0.07361372692748629
1.8700001239776611,black.png,0.05929066202529216,0.07596984666226467,0.07637776599857402,0.07802732473937568,0.07332979271767052,0.06957838768701406,0.07406118649973709,0.07170973827954986,0.07375031843785268,0.0718766164036532,0.07535300557053155,0.07495858668787321,0.07647316324390926,0.072500610053612,0.07518266292603766,0.07364003493071018
1.8700001239776611,black.png,0.059332951525801605,0.0759784297321355,0.07638473974284407,0.07803675717553582,0.0733362076683292,0.06959571028896692,0.07406599212479498,0.07172531744543521,0.07378214732195704,0.07186056785113429,0.07533820871570214,0.07494249343186539,0.0764587910722245,0.07252638161496897,0.07516616733862964,0.07362016422988941
1.8700001239776611,black.png,0.05930957160110135,0.07596180003426076,0.0763671712717022,0.07801726645437079,0.0733185497902095,0.0695753702015126,0.07404744017689707,0.07170470913704742,0.07373929902783621,0.07186521701398099,0.07534214262272627,0.07494783549879021,0.07646147328155914,0.07248874127730623,0.07517179997823238,0.07362803204393768
1.8700001239776611,black.png,0.05930655411559988,0.07598357063336023,0.07639099823129156,0.07804071343430441,0.07334456722075548,0.06959195519589843,0.07407464224989918,0.07172417750646799,0.07377955451960022,0.07187494002281905,0.0753523350181979,0.07495632916168322,0.07647311854042035,0.07252215713526691,0.0751813441731148,0.07363473756727427
1.8700001239776611,black.png,0.05933397970604655,0.07596817028143052,0.07637237922816029,0.07802408373642966,0.07332413772632333,0.0695865237219958,0.07405206698799932,0.07171186169527312,0.07375981792924619,0.07185690216504362,0.07533458773310038,0.07493974416729739,0.076454544240778,0.07250563919611444,0.07516301574266145,0.07361714674438795
1.8700001239776611,black.png,0.059300586199830314,0.07597366881056652,0.07638161049862033,0.07803040928011051,0.07333395014213921,0.06958196396612691,0.07406431574396083,0.07171543797438597,0.07375360414428761,0.07187999151706595,0.07535707358802242,0.07496225237396388,0.07647653835732202,0.07250318050422436,0.07518650742608397,0.07364251597434472
1.8700001239776611,black.png,0.05934218279626165,0.07598314595021557,0.07638941125743523,0.07804120517268243,0.07334148268002065,0.06959964419599106,0.074069233127741,0.0717288266693147,0.07378646120863691,0.07186546288317,0.07534361783786032,0.07494767903657902,0.07646379786298249,0.07253143310921586,0.07517126353636545,0.07362447811656929
1.8700001239776611,black.png,0.05932432375244185,0.07596519749941796,0.07637123928919307,0.07802207207942868,0.07332272956642265,0.06957959468121465,0.07405253637463288,0.07170911243070512,0.07374265178950451,0.07186912856926067,0.07534681413731743,0.07495266347559255,0.07646630125836149,0.07249529033843163,0.0751758903474677,0.07363230122712865
1.8700001239776611,black.png,0.05932309440649681,0.07598779511306228,0.07639685438833885,0.07804708368147417,0.07335013280512485,0.06959725255933434,0.07408094544183558,0.07173090538154904,0.07378657296735919,0.07188200317406693,0.07536049340492408,0.07496430873445377,0.07648103105795753,0.07253212601329398,0.07518907787669633,0.07364256067783363
1.8700001239776611,black.png,0.05934584848235232,0.07597391467975553,0.07637971060034163,0.07803195155047793,0.07333137969152685,0.06959311748661011,0.07405895132529156,0.07172138353841108,0.07376672461828288,0.07186222188022398,0.07534124855294806,0.07494595795225596,0.07646093683969221,0.07251364112062944,0.07516931893459784,0.07362298054969078
1.8700001239776611,black.png,0.05930961630459026,0.07597769212456848,0.07638639377193376,0.07803584075401315,0.07334009687186442,0.06958540613477303,0.07407111067427524,0.07171934952966565,0.07375988498447955,0.07188522182526849,0.07536326502123654,0.07496810853101117,0.07648346739810316,0.07250957310313857,0.0751929447284871,0.07364803685522518
1.8700001239776611,black.png,0.05934951416844299,0.07598911386598514,0.07639629559472746,0.07804831302741921,0.07334941754930228,0.0696055227047828,0.07407801736331193,0.07173821440198593,0.07379459724361864,0.07187223546173996,0.07535085980306384,0.07495485394654917,0.07647173273226412,0.07253829509476364,0.07517866196378016,0.07363138480560598
1.8700001239776611,black.png,0.05933275036010151,0.07597167950531,0.07637763188810728,0.07802786118124261,0.07332979271767052,0.06958502615511729,0.07405906308401383,0.07171532621566369,0.0737476585802625,0.07187324129024045,0.07535090450655275,0.07495661973436114,0.07646985518572988,0.07249788314078845,0.07517993601321411,0.07363560928530803
1.8700001239776611,black.png,0.05932763181062124,0.07599085730205266,0.07639908956278438,0.07804851419311931,0.07335252444178157,0.06959933127156868,0.07408170540114706,0.0717330735007612,0.07378744468539294,0.07188410423804573,0.07536196862005813,0.07496596276354346,0.07648226040390257,0.072532617751672,0.07519028487089692,0.0736438794307565
1.8700001239776611,black.png,0.0593666132529513,0.07597679805479027,0.07638158814687587,0.0780337173382899,0.0733326090374719,0.06959571028896692,0.07405964422936967,0.07172558566636868,0.07376907155145068,0.07186535112444772,0.07534386370704933,0.07494881897554624,0.07646294849669319,0.07251674801310873,0.07517130823985436,0.0736253721863475
1.8700001239776611,black.png,0.05932226739195196,0.07598037433390312,0.07638849483591256,0.0780373159691472,0.0733408568311759,0.06958679194292926,0.07407135654346425,0.07172031065467722,0.07375977322575727,0.07188602648806888,0.07536456142241495,0.07496920376648948,0.07648395913648118,0.07250892490254937,0.0751933470598873,0.07364830507615865
1.8700001239776611,black.png,0.059363439305238644,0.07599152785438631,0.07639886604533982,0.07805039173965356,0.07335035632256941,0.06960617090537201,0.07407989490984618,0.07173770031186345,0.0737975700256312,0.07187514118851915,0.07535499487578808,0.07495825141170638,0.07647501843869906,0.07254124552503174,0.07518165709753717,0.07363384349749606
1.8700001239776611,black.png,0.05934779308411993,0.07597545695012295,0.07638156579513142,0.07803190684698902,0.07333296666538318,0.06958828950980776,0.07406214762474866,0.07171934952966565,0.07375329121986524,0.07187822572925398,0.07535680536708896,0.0749619394495415,0.07647559958405489,0.07250434279493603,0.07518516632141665,0.07364021374466583
1.8700001239776611,black.png,0.05933458320314684,0.07599622172072193,0.07640429751924246,0.07805430329493324,0.07335804532266203,0.0696040251379043,0.07408870149716157,0.07173942139618651,0.07379345730465142,0.0718898709881152,0.0753681824050167,0.07497197538280194,0.07648892122375026,0.07253845155697483,0.07519652100759995,0.0736499814569928
1.8700001239776611,black.png,0.05936663560469575,0.07598162603159261,0.07638619260623367,0.07803867942555898,0.07333808521486344,0.06960015828611353,0.07406639445619517,0.07173070421584894,0.07377479359803124,0.07187046967392799,0.0753487810908295,0.07495387046979314,0.07646791058396227,0.07252314061202295,0.07517624797537899,0.07363073660501677
1.8700001239776611,black.png,0.05934037230496077,0.0759883315549292,0.07639604972553846,0.0780450720244732,0.07334867994173526,0.0695951738471,0.07407864321215668,0.07172898313152588,0.07376887038575058,0.07189543657248457,0.07537352447194152,0.07497850209218289,0.0764926986685632,0.07251829028347614,0.07520237716464724,0.07365775986406324
1.8700001239776611,black.png,0.0593832653025705,0.07599890393005657,0.07640503512680949,0.0780566725798455,0.0733574641773062,0.0696120270624193,0.07408586282561574,0.0717448305183447,0.07380148158091088,0.07187954448217684,0.07535890643106775,0.07496240883617507,0.07647915351142329,0.07254582763264508,0.07518594863247259,0.07363833619813158
1.8700001239776611,black.png,0.05936699323260704,0.07597983789203619,0.07638509737075536,0.07803559488482414,0.07333656529624048,0.06959153051275378,0.07406516511025013,0.0717250268727573,0.0737571133681671,0.07188260667116722,0.07536154393691348,0.07496665566762158,0.07647966760154576,0.072508857847316,0.07518970372554108,0.07364457233483461
1.8700001239776611,black.png,0.05936048887497054,0.07600315076150307,0.07641102539432351,0.07806018180372498,0.07336385677622041,0.06960804845190625,0.07409176368615195,0.07174221536424343,0.07379786059830912,0.07189563773818466,0.07537558083243141,0.07497868090613853,0.07649441975288626,0.07254281014714362,0.07520275714430298,0.07365494354426187
1.8700001239776611,black.png,0.05938628278807197,0.07598973971482989,0.07639459686214886,0.07804623431518487,0.07334615419461181,0.06960444982104895,0.07407314468302068,0.07173504045427327,0.07378158852834565,0.07187670581063102,0.07535714064325578,0.07496100067627438,0.07647537606661034,0.07252968967314835,0.07518378051326043,0.07363634689287506
1.8700001239776611,black.png,0.05934622846200806,0.07599295836603145,0.07640069888838516,0.07804940826289752,0.07335397730517117,0.06959709609712315,0.07408365000291467,0.07173352053565031,0.07377043500786246,0.07189807407833029,0.07537741367547675,0.07498167603989554,0.07649654316860952,0.07252206772828909,0.07520575227805999,0.07366028561118669
1.8700001239776611,black.png,0.05938990377067373,0.07600350838941436,0.0764097289931451,0.07806136644618111,0.07336334268609794,0.06961584921072116,0.07409297068035253,0.07175001612305833,0.07380646601992441,0.07188533358399077,0.07536536608521534,0.07496839910368909,0.07648478615102602,0.0725530695978486,0.0751916930307976,0.07364428176215669
1.8700001239776611,black.png,0.0593801137066023,0.07598564934559457,0.07639048414116908,0.07804098165523787,0.07334327081957707,0.06959613497211158,0.07407280940685385,0.07172728439894728,0.07376120373740241,0.07188647352295799,0.07536550019568207,0.07497050016766789,0.07648324388065861,0.07251444578342983,0.07519341411512066,0.07364904268372567
1.8700001239776611,black.png,0.05936793200587416,0.07600652587491583,0.07641419934203617,0.0780640710072602,0.07336899767744513,0.06961166943450801,0.0741008384944008,0.07174764683814606,0.07380228624371127,0.07190097980510948,0.07537951473945555,0.07498326301375187,0.07649864423258831,0.07255090147863644,0.07520733925191632,0.07366147025364282
1.8700001239776611,black.png,0.0593961175556323,0.07599405360150976,0.07639817314126171,0.0780505705536092,0.07335120568885871,0.06960988129495159,0.0740808336831133,0.07174040487294255,0.07378777996155977,0.07188265137465613,0.0753603369427129,0.07496578394958782,0.0764777453515226,0.07253775865289672,0.07518751325458446,0.07364289595400046
1.8700001239776611,black.png,0.05934517793001866,0.07599789810155608,0.07640490101634276,0.07805463857110007,0.07335931937209599,0.06960315341987054,0.07409151781696294,0.07173890730606404,0.07377825811842181,0.07190556191272282,0.07538192872785672,0.0749890521155658,0.07649904656398851,0.07253009200454855,0.07521071436532907,0.07366826518395723
1.8700001239776611,black.png,0.059369004889608015,0.07601072800287342,0.07641565220542576,0.07806840724568453,0.07337071876176819,0.06962219710614646,0.07410014559032269,0.0717547323411384,0.073815920807829,0.07189371548816151,0.07537075285562907,0.07497785389159368,0.07648809420920541,0.07256037861828549,0.07519777270528945,0.07365235074190506
1.8700001239776611,black.png,0.059341378133461256,0.07599206429625324,0.07639520035924915,0.07804706132972972,0.07335028926733604,0.06960161114950313,0.07407969374414608,0.07173396757053942,0.07377018913867345,0.07189342491548359,0.07536912117828383,0.07497859149916071,0.07648525553765959,0.07252128541723316,0.07519772800180054,0.07365539057915098
1.8700001239776611,black.png,0.05932658127863184,0.07601204675579629,0.07641726153102654,0.07806838489394008,0.07337454091007005,0.06961616213514353,0.07410407949734682,0.07175298890507088,0.07381073520311537,0.0719077747354239,0.07538364981217978,0.07499133199350023,0.0765011029244784,0.07255530477229413,0.07521178724906293,0.07366716994847892
1.8700001239776611,black.png,0.05934837422947577,0.07600180965683576,0.0764031799320197,0.07805714196647906,0.07335949818605163,0.06961573745199888,0.07408521462502654,0.07174543401544499,0.07379685476980863,0.07188875340089243,0.07536500845730405,0.07497340589444708,0.07648123222365763,0.07254129022852066,0.07519182714126434,0.07364790274475845
1.8700001239776611,black.png,0.05930693409525562,0.07600346368592545,0.07640800790882205,0.07805917597522449,0.07336497436344318,0.06960666264375003,0.0740913837064962,0.07174170127412095,0.07378532126966969,0.0719109263313921,0.07538610850406986,0.07499486356912417,0.07650184053204542,0.07253234953073853,0.075214000071764,0.07367269082935939
1.8700001239776611,black.png,0.05933297387754606,0.07601591360758705,0.07641965316768326,0.07807365990563153,0.07337675373277112,0.06962695802771544,0.07410280544791287,0.07176096847784143,0.07382267103465451,0.07189950458997543,0.07537575964638706,0.07498312890328514,0.07649287748251885,0.07256440193228744,0.07520206424022487,0.0736580280849967
1.8700001239776611,black.png,0.059307291723166906,0.07599680286607777,0.07639926837674002,0.07805285043154364,0.07335672656973917,0.06960684145770567,0.07408327002325893,0.07173926493397532,0.07377863809807755,0.07190026454928691,0.07537537966673132,0.07498498409807493,0.07649160343308489,0.07252702981555817,0.07520347240012555,0.07366234197167658
1.8700001239776611,black.png,0.05928844920259108,0.0760188416861107,0.07642378824040749,0.0780768785568331,0.07338363807006336,0.06962295706545794,0.07411024857881648,0.07175862154467362,0.07381784305785216,0.07191535197679425,0.0753902435767941,0.0749987527726594,0.0765074508199037,0.07256178677818617,0.07521809044099932,0.07367550714916075
1.8700001239776611,black.png,0.05931835583667228,0.07600590002607108,0.07640713619078829,0.07806308753050417,0.073365063770421,0.06962061013229014,0.07408896971809503,0.071750932544581,0.07380255446464473,0.0718949224823621,0.07536979173061749,0.07497957497591674,0.0764863954766268,0.0725484204350019,0.07519701274597797,0.07365474237856177
1.8700001239776611,black.png,0.0592750381559179,0.07600871634587245,0.07641274647864657,0.0780653227049497,0.07337152342456858,0.06961229528335276,0.07409712810482122,0.07174559047765618,0.07379108801973916,0.07191667072971711,0.07539084707389439,0.0750010550023383,0.07650704848850351,0.07253885388837503,0.0752194986009,0.0736790834282736
1.886000156402588,black.png,0.059303111946953764,0.07602152389544534,0.07642495053111917,0.07808020896675694,0.07338372747704118,0.06963301535046283,0.0741081922183266,0.07176655641395525,0.07383040473823604,0.07190685831390123,0.07538257692844592,0.07499142140047806,0.07649969476457771,0.072572873243436,0.07520944031589512,0.07366587354730052
1.886000156402588,black.png,0.059287778650257424,0.07600484949408168,0.07640693502508819,0.078060919411292,0.073365063770421,0.0696147763269873,0.07408959556693978,0.07174704334104577,0.07378719881620394,0.07190714888657915,0.07538235341100137,0.07499294131910102,0.07649813014246584,0.07253579169938465,0.0752106473100957,0.07366976275083574
1.886000156402588,black.png,0.05927394292043959,0.07602489900885809,0.07642933147303241,0.07808226532724682,0.07338980715153302,0.06962850029808286,0.0741145401137519,0.07176418712904299,0.07382495091258895,0.07192047052627451,0.07539567505069673,0.07500472068842896,0.07651297170078417,0.07256719590034436,0.07522381248757988,0.07368042453294092
1.886000156402588,black.png,0.05931062213309075,0.07601374548837489,0.07641422169378062,0.0780699271643075,0.07337349037808065,0.06962800855970484,0.07409609992457628,0.07175826391676234,0.07381216571476051,0.07190093510162057,0.07537692193709873,0.07498645931320898,0.07649377155229706,0.07255546123450532,0.07520456763560386,0.07366017385246441
1.886000156402588,black.png,0.05926290115867867,0.07601564538665359,0.07641904967058297,0.07807146943467491,0.07337963710780586,0.06961799497818887,0.07410488416014721,0.0717522289457594,0.07379958168263218,0.07192237042455321,0.07539786552165335,0.07500753700823033,0.07651384341881792,0.07254372656866628,0.07522674056610353,0.07368397846030932
1.886000156402588,black.png,0.059298440432362605,0.07602807295657074,0.07643073963293309,0.07808546162670393,0.07339050005561114,0.06963715042318706,0.0741142942445629,0.07177116087331305,0.07383610443307215,0.07191184275291476,0.07538796369885965,0.07499647289472496,0.07650472390708016,0.07257725418534924,0.07521476003107548,0.07367000862002475
1.886000156402588,black.png,0.059284872923478234,0.07601139855520708,0.07641285823736885,0.0780667755683393,0.07337150107282413,0.06962025250437885,0.07409589875887618,0.07175245246320396,0.07379410550524063,0.07191369794770455,0.0753887907134045,0.07499913275231514,0.07650400865125759,0.07254175961515422,0.07521681639156537,0.07367539539043848
1.886000156402588,black.png,0.059273384126828206,0.07603337032000665,0.07643722163882513,0.07809049076920638,0.07339776437255911,0.0696364351673645,0.07412243027954463,0.07177335134426967,0.07383364574118206,0.07193046175604603,0.07540546511476816,0.07501408606935574,0.07652271706136668,0.07257573426672628,0.07523375901386249,0.07369008048654561
1.886000156402588,black.png,0.059304341292898806,0.07602311086930166,0.07642336355726284,0.07807947135918991,0.07338303457296307,0.06963654692608677,0.07410586763690324,0.07176646700697743,0.07381985471485314,0.0719090711366023,0.07538476739940254,0.07499405890632378,0.07650119233145622,0.07256218910958637,0.07521225663569649,0.07366815342523496
1.886000156402588,black.png,0.05926417520811262,0.07602279794487929,0.07642629163578649,0.07807933724872318,0.07338609676195344,0.06962568397828149,0.0741109414828946,0.07176206371331974,0.07380541548793501,0.07193030529383485,0.07540481691417895,0.0750147566216894,0.07652092892181026,0.07255137086527,0.07523366960688467,0.07369195803307986
1.886000156402588,black.png,0.05929926744690745,0.0760350467008408,0.07643755691499196,0.07809326238551884,0.07339711617196991,0.06964501823723533,0.07412053038126593,0.07177936396352816,0.07384374872967586,0.07191971056696303,0.0753946915739407,0.07500349134248392,0.07651151883739457,0.07258516670288642,0.07522173377534554,0.07367785408232856
1.886000156402588,black.png,0.05928728691187941,0.07601631593898725,0.07641759680719337,0.0780724752631754,0.07337628434613756,0.06962635453061515,0.07409969855543358,0.0717600297045743,0.07379969344135445,0.07191839181404017,0.07539276932391754,0.07500324547329491,0.07650818842747073,0.07254658759195656,0.07522113027824524,0.0736799327945629
1.886000156402588,black.png,0.059269584330270804,0.07603703600609732,0.07644151317376055,0.07809496111809744,0.07340210061098344,0.06963985498426616,0.0741258947999352,0.07177464774544808,0.07383809373832867,0.07193441801481462,0.07540948842877011,0.07501808703161324,0.07652604747129052,0.07257969052549487,0.0752374023482087,0.07369394733833638
1.886000156402588,black.png,0.05930051914459695,0.0760264412792255,0.07642745392649816,0.07808369583889196,0.07338620852067572,0.06964019026043299,0.07410850514274897,0.07177234551576918,0.0738253755957336,0.07191345207851554,0.07538905893433796,0.07499799281334792,0.0765047015553357,0.07256969929572335,0.07521592232178716,0.07367222144272582
1.886000156402588,black.png,0.05926784089420329,0.07602720123853698,0.0764311866678222,0.07808405346680325,0.07339081298003351,0.06962981905100572,0.07411518831434111,0.07176584115813268,0.07381113753451557,0.07193466388400363,0.0754100472223815,0.07501904815662482,0.07652593571256824,0.07255742818801739,0.0752384528801981,0.0736959366435929
2.2170000076293945,blue.png,0.05930259785683129,0.07603877944216483,0.07644180374643847,0.07809741980998752,0.07340154181737206,0.06964765574308106,0.07412493367492362,0.07178296259438546,0.07384806261635574,0.07192290686642014,0.07539947484725414,0.07500670999368549,0.07651643622117474,0.072588631223277,0.07522595825504759,0.07368022336724082
2.2170000076293945,blue.png,0.05929535589162777,0.07602112156404514,0.076422782411907,0.07807775027486685,0.07338176052352911,0.0696295284783278,0.07410499591886949,0.07176394125985398,0.07380467788036799,0.07192257159025331,0.07539875959143157,0.07500762641520815,0.07651386577056238,0.07255141556875891,0.07522624882772551,0.07368335261146457
2.2170000076293945,blue.png,0.059287622188046236,0.07604202044511085,0.07644669877847418,0.0781002808332778,0.07340719680871925,0.06964267130406752,0.07413108040464883,0.07178148737925141,0.07384084300289667,0.0719385307357944,0.07541471873697266,0.07502213269735965,0.07653138953821534,0.07258398206043029,0.0752420068075665,0.07369754596919369
2.2170000076293945,blue.png,0.05931978634831742,0.07603100103509439,0.07643252777248952,0.07808897085058342,0.07339134942190044,0.069643431263379,0.0741128413811733,0.07177777698967183,0.07383009181381367,0.07191841416578462,0.07539500449836307,0.07500304430759482,0.07651064711936081,0.07257513076962599,0.07522130909220089,0.07367696001255035
2.2170000076293945,blue.png,0.059287108097923764,0.07603082222113874,0.07643529938880197,0.07808861322267213,0.07339467983182428,0.069632680074296,0.07411766935797565,0.07177049032097939,0.07381384209559466,0.0719387319014945,0.07541436110906137,0.07502278089794885,0.07652940023295882,0.07256194324039736,0.07524225267675551,0.07370007171631714
2.2170000076293945,blue.png,0.059321015694262465,0.07604362977071163,0.07644745873778566,0.07810318656005699,0.07340699564301915,0.06965210374022766,0.07412830878833637,0.0717892434345774,0.07385246591001343,0.07192795836066704,0.07540461574847886,0.07501129210129882,0.07652104068053253,0.0725945767873021,0.07523096504580558,0.07368514075102099
2.2170000076293945,blue.png,0.05931185147903579,0.07602521193328046,0.07642689513288678,0.07808179594061326,0.07338602970672008,0.0696328812399961,0.0741082369218155,0.07176780811164475,0.07380814240075856,0.07192610316587725,0.0754016429664663,0.07501046508675398,0.07651677149734157,0.07255680233917264,0.0752293557202048,0.07368695124232187
2.2170000076293945,blue.png,0.05929826161840696,0.07604398739862292,0.07644830810407496,0.07810177840015631,0.07340900730002013,0.06964559938259117,0.0741311921633711,0.07178510836185317,0.0738428323081532,0.07194069885500656,0.07541637276606235,0.0750238090781938,0.0765327082911382,0.0725875806912876,0.07524379494712292,0.07370016112329496
2.2170000076293945,blue.png,0.059332236269979036,0.07603489023862961,0.07643605934811346,0.07809232361225171,0.07339499275624665,0.06964727576342532,0.07411655177075288,0.07178240380077408,0.07383440570049354,0.07192172222396401,0.07539799963212009,0.07500603944135183,0.07651341873567327,0.07257906467665012,0.07522459479863582,0.07368049158817429
2.2170000076293945,blue.png,0.05929131022588136,0.07603520316305198,0.076438786260937,0.07809172011515142,0.07339841257314832,0.06963601048421984,0.07412200559639998,0.071775184187315,0.07382001117706433,0.07194360458178575,0.0754193455480749,0.07502758652300674,0.07653467524465027,0.0725667712171997,0.07524755004019142,0.07370505615533067
2.2170000076293945,blue.png,0.05932798943853253,0.07605178815743782,0.07645427601984453,0.07810944504850448,0.07341425995996713,0.06965789284204159,0.0741374953553075,0.071796194827103,0.07386049018627289,0.07193448507004799,0.07541132127181545,0.07501797527289096,0.0765274109277023,0.07260074586877177,0.07523778232786445,0.07369204744005768
2.2170000076293945,blue.png,0.05932280383381889,0.07603325856128437,0.0764345394294905,0.0780891273127946,0.07339282463703449,0.0696402349639219,0.07411552359050794,0.07177811226583866,0.07381605491829574,0.07193220519211355,0.07540843789678071,0.07501708120311275,0.07652289587532232,0.07256196559214181,0.0752359047813302,0.0736931873790249
2.2320001125335693,blue.png,0.059310778595301934,0.0760512517155709,0.07645528184834502,0.07810834981302617,0.07341531049195653,0.06965011443497114,0.07413823296287453,0.07179091981541155,0.07384944842451197,0.07194675617775395,0.07542301123416557,0.07502997815966346,0.07653856444818549,0.07259075463900025,0.07525027695301496,0.07370626314953126
2.2320001125335693,blue.png,0.05933632663921436,0.07604222161081095,0.07644231783656094,0.07809831387976574,0.07340140770690533,0.06965279664430578,0.07412160326499978,0.07178776821944335,0.07384209470058617,0.07192874067172297,0.0754045933967344,0.0750122532263104,0.07651936429969838,0.07258556903428662,0.07523078623184994,0.07368713005627751
2.2320001125335693,blue.png,0.059296920513739644,0.07604257923872224,0.07644524591508459,0.07809847034197692,0.07340560983486293,0.06964309598721218,0.07412826408484746,0.07178311905659665,0.07382454858118875,0.0719490807591773,0.07542350297254359,0.0750318557061977,0.07653820682027421,0.07257086158643503,0.07525137218849327,0.07371033116702212
2.2320001125335693,blue.png,0.0593335550229019,0.07605652672726235,0.07645825463035757,0.07811369187995099,0.07341852914315809,0.06966229613569928,0.07413975288149749,0.07180075458297189,0.07386475936946385,0.07194105648291785,0.07541601513815106,0.07502309382237123,0.07653116602077079,0.07260546208685184,0.07524196210407759,0.07369812711454952
2.2320001125335693,blue.png,0.05933049283391152,0.0760383994625091,0.07643874155744809,0.07809362001343012,0.07339720557894773,0.06964483942327969,0.07411708821261981,0.07178188971065161,0.07382101700556482,0.07193850838404994,0.0754131988183497,0.07502188682817064,0.07652712035502438,0.07256831348756712,0.07524024101975453,0.07369904353607219
2.2320001125335693,blue.png,0.05931670180758259,0.07605782312844075,0.07646165209551478,0.07811530120555177,0.07342203836703758,0.06965697642051892,0.07414578785250042,0.07179950288528239,0.07385581867168173,0.07195455693656885,0.0754294485365687,0.07503650486904441,0.07654495704709971,0.0725981307146705,0.07525642368274017,0.07371348276299032
2.2320001125335693,blue.png,0.05934911183704279,0.07604825658181388,0.07644839751105278,0.07810495234786896,0.07340739797441935,0.06965847398739743,0.07412877817496993,0.07179632893756974,0.0738489343343895,0.0719353791398262,0.07541022603633714,0.07501808703161324,0.07652537691895686,0.07259292275821241,0.07523648592668604,0.07369336619298054
2.2320001125335693,blue.png,0.05930659881908879,0.07604881537542527,0.07645092325817623,0.07810434885076867,0.07341115306748784,0.0696484827576259,0.07413405318666139,0.07179031631831126,0.07383145527022544,0.07195587568949172,0.07542989557145781,0.07503829300860083,0.07654480058488852,0.07257758946151607,0.07525785419438531,0.07371658965546961
2.2320001125335693,blue.png,0.05934075228461651,0.07606309814013221,0.07646466958101625,0.07812037505154312,0.07342518996300577,0.06966873343810241,0.07414663721878972,0.0718096505772651,0.07387019084336649,0.07194530331436436,0.07542053019053103,0.07502711713637318,0.07653612810803986,0.0726109829677323,0.07524654421169093,0.07370174809715128
2.2320001125335693,blue.png,0.059330761054844985,0.07604186398289967,0.07644155787724946,0.07809645868497594,0.07340078185806058,0.06964774515005888,0.0741210444713884,0.07178542128627555,0.07382533089224469,0.07194060944802874,0.0754157469172176,0.0750240102438939,0.07652942258470327,0.07257166624923542,0.07524263265641125,0.07370047404771733
2.2320001125335693,blue.png,0.05932689420305422,0.07606097472440895,0.07646415549089378,0.07811751402825284,0.07342418413450529,0.06965867515309752,0.07414581020424488,0.07180178276321683,0.073858433825783,0.07195681446275884,0.07543242131858126,0.07503905296791231,0.0765466110761894,0.0725995835780601,0.07525879296765244,0.07371493562637992
2.2320001125335693,blue.png,0.059360868854626284,0.07605143052952654,0.07645186203144336,0.0781080368886038,0.07340987901805389,0.06966075386533187,0.07412976165172597,0.07179963699574912,0.07385195181989096,0.07193698846542698,0.07541317646660524,0.07502029985431431,0.07652694154106873,0.07259504617393567,0.07523858699066484,0.07369455083543668
2.2320001125335693,blue.png,0.0593236979035971,0.07605098349463743,0.07645396309542216,0.0781070310601033,0.07341271768959971,0.0696492874204263,0.07413479079422841,0.07179170212646749,0.07383348927897088,0.07195784264300378,0.0754330024639371,0.07504055053479082,0.07654687929712287,0.07257960111851705,0.07526026818278649,0.07371788605664802
2.2320001125335693,blue.png,0.05935541502897919,0.07606591445993358,0.07646757530779544,0.07812316901960004,0.07342720162000675,0.06966985102532518,0.07414773245426803,0.07181201986217736,0.07387454943353527,0.07195004188418888,0.07542535816733338,0.07503194511317553,0.07654068786390875,0.0726168838282685,0.07525137218849327,0.07370657607395363
2.2320001125335693,blue.png,0.05935170463939961,0.07604734016029122,0.0764473916825523,0.07810291833912353,0.07340643684940777,0.06965364601059508,0.07412730295983588,0.07179433963231321,0.07383152232545881,0.07194807493067681,0.07542251949578756,0.07503118515386405,0.07653699982607362,0.07258040578131744,0.07524976286289249,0.07370796188210986
2.2320001125335693,blue.png,0.05933491847931367,0.07606864137275712,0.07647200095319759,0.07812600769114586,0.07343256603867603,0.06966714646424609,0.07415546615784957,0.07181206456566627,0.07386569814273097,0.07196595632624106,0.07544062440879636,0.07504770309301652,0.07655597645711618,0.07261067004330993,0.07526764425845674,0.0737245468764957
2.2320001125335693,blue.png,0.059366769715162485,0.07605941010229708,0.07645968514200271,0.07811621762707444,0.07341841738443582,0.06966900165903588,0.07413845648031908,0.07180871180399798,0.0738592831920723,0.07194452100330842,0.07542006080389747,0.07502754181951783,0.0765344070237168,0.07260461272056254,0.07524578425237945,0.07370237394599603
2.2320001125335693,blue.png,0.05932403317976393,0.07605717492785155,0.07645977454898054,0.07811297662412842,0.0734194232129363,0.06965617175771853,0.07414113868965372,0.07179990521668259,0.07383912191857361,0.07196360939307325,0.07543861275179538,0.07504674196800494,0.07655293661987025,0.07258693249069839,0.07526607963634487,0.07372436806254005
2.248000144958496,blue.png,0.059360712392415096,0.07607313407339264,0.07647488432823232,0.07813014276387009,0.07343493532358829,0.0696766906591285,0.07415492971598264,0.07182017824890355,0.07388199256443889,0.07195627802089191,0.07543268953951472,0.0750388070987233,0.07654837686400137,0.07262231530217114,0.07525836828450778,0.07371270045193438
2.248000144958496,blue.png,0.059353626889422764,0.07605355394524979,0.07645318078436622,0.0781080815920927,0.07341244946866625,0.06965831752518624,0.07413251091629397,0.07180041930680506,0.07383534447376067,0.07194963955278869,0.07542546992605566,0.07503342032830958,0.07654019612553073,0.07258199275517377,0.07525233331350485,0.07370961591119955
2.248000144958496,blue.png,0.05933746657818158,0.0760706530297581,0.07647334205786491,0.07812667824347952,0.07343424241951017,0.06966701235377935,0.0741562037654166,0.07181349507731141,0.07386956499452174,0.07196825855591996,0.07544453596407603,0.07505083233724026,0.07656017858507377,0.0726115864648326,0.07527133229629186,0.07372667029221895
2.248000144958496,blue.png,0.0593752633780555,0.07606457335526626,0.07646390962170477,0.0781202856445653,0.07342279832634906,0.06967199679279289,0.07414256920129886,0.07181414327790062,0.07386326180258534,0.07194711380566524,0.07542343591731022,0.07503049224978593,0.07653722334351817,0.07260575265952976,0.07524873468264755,0.07370422914078582
2.248000144958496,blue.png,0.05934160165090581,0.0760613547040647,0.07646301555192656,0.07811610586835216,0.07342185955308193,0.06965901042926435,0.07414247979432104,0.07180569431849651,0.07384336875002012,0.07196801268673095,0.07544308310068644,0.075050966447707,0.07655599880886063,0.07258956999654412,0.07526990178464672,0.07372807845211964
2.248000144958496,blue.png,0.059372715279187596,0.07607901258218439,0.07648013698817932,0.07813521660986145,0.07343971859690172,0.06968125041499738,0.07415902008521796,0.0718246038943057,0.07388726757613034,0.07196191066049465,0.07543798690295063,0.07504414916564812,0.07655298132335916,0.072626137450473,0.07526341977875468,0.07371810957409257
2.248000144958496,blue.png,0.05936659090120684,0.07605958891625272,0.07645928281060252,0.07811436243228465,0.07341810446001344,0.06966397251653343,0.07413783063147433,0.07180549315279641,0.07384410635758715,0.07195862495405972,0.07543374007150412,0.07504189163945814,0.0765476616081788,0.07258961470003303,0.07526053640371995,0.07371790840839247
2.248000144958496,blue.png,0.05935239754347772,0.07607963843102913,0.07648248392134713,0.07813597656917293,0.07344325017252566,0.0696760424585393,0.07416494329749862,0.07182294986521601,0.07387602464866933,0.07197596990775704,0.07545133089439045,0.0750579625437215,0.0765670182188771,0.07261840374689146,0.0752784625027731,0.07373467221673397
2.248000144958496,blue.png,0.05939797275042209,0.07607072008499147,0.07647048103457463,0.07812674529871289,0.07342934738747446,0.06967803176379582,0.07414896180021308,0.07182154170531532,0.07387112961663361,0.0719547804540134,0.0754311472691473,0.07503806949115628,0.0765463652070004,0.07261440278463396,0.07525709423507383,0.07371252163797874
2.248000144958496,blue.png,0.059359438342981144,0.07606884253845722,0.07647072690376364,0.0781240854411227,0.07343050967818614,0.06966544773166748,0.07415193458222563,0.07181210926915518,0.07384857670647821,0.07197310888446676,0.07544864868505581,0.0750560626454428,0.07656350899499761,0.07259502382219121,0.07527640614228322,0.07373386755393357
2.248000144958496,blue.png,0.05938793681716166,0.07608270062001951,0.07648418265392573,0.07813970931049696,0.07344389837311487,0.06968444671445449,0.07416440685563169,0.07183034829263071,0.07389140264885458,0.07196638100938571,0.07544272547277515,0.07504857481105028,0.0765586139629619,0.0726320383110092,0.07526865008695723,0.07372331753055066
2.248000144958496,blue.png,0.05938469581421564,0.07606352282327686,0.0764634402350712,0.0781183857462866,0.0734217254426152,0.06966766055436856,0.07414187629722074,0.07181222102787746,0.07384636388377713,0.07196054720408288,0.07543628817037203,0.07504417151739258,0.07655076850065809,0.0725932803861237,0.07526341977875468,0.07372050121074929
2.248000144958496,blue.png,0.059370010718108504,0.07608256650955278,0.07648532259289295,0.0781383905575741,0.07344568651267129,0.06967740591495107,0.07416762550683326,0.07182529679838381,0.07387808100915921,0.07197869682058058,0.07545441543512528,0.07506089062224515,0.07657028157356757,0.07262135417715956,0.07528177056095249,0.07373713090862405
2.248000144958496,blue.png,0.05940554999179244,0.07607434106759323,0.07647320794739818,0.07812971808072544,0.0734322754659981,0.06968125041499738,0.07415137578861425,0.07182639203386212,0.07387376712247934,0.07195766382904814,0.07543371771975967,0.07504063994176864,0.07654868978842375,0.07261862726433602,0.07526006701708639,0.0737150920885911
2.3480000495910645,blue.png,0.05937425754955501,0.07607284350071472,0.07647343146484273,0.07812656648475724,0.07343296837007622,0.06966859932763568,0.0741541027014378,0.0718168031354908,0.0738516835989575,0.07197697573625753,0.07545269435080222,0.07506010831118921,0.07656708527411046,0.0725998294472491,0.07528067532547418,0.07373672857722385
2.3480000495910645,blue.png,0.05940183960221286,0.0760887579427669,0.07648941296212827,0.07814417965938802,0.07344912868131741,0.06968771006914497,0.07416894425975612,0.07183367870255455,0.07389426367214486,0.07196984552977628,0.0754469052489883,0.07505253106981886,0.07656207848335247,0.07263550283139977,0.07527280751142591,0.07372566446371846
2.3480000495910645,blue.png,0.059397302198088434,0.076070451864058,0.07646905052292949,0.0781236384062336,0.07342733573047348,0.06967125918522586,0.07414612312866725,0.07181637845234615,0.07385349409025838,0.07196691745125264,0.07544357483906446,0.07505107820642927,0.07655733991352795,0.0726017293455278,0.07527061704046929,0.07372651383000776
2.3480000495910645,blue.png,0.059384584055493364,0.07609155191082381,0.07649372684880815,0.07814677246174484,0.07345382254765302,0.06968480434236578,0.07417433103016985,0.07183551154559989,0.0738855911952962,0.07198649757939549,0.07546319967069622,0.07506920547118252,0.07657783646319347,0.07263000430226377,0.07529013011337878,0.07374504342616123
2.3480000495910645,blue.png,0.0594209726954666,0.07608187360547466,0.07648076283702407,0.07813675888022886,0.07343960683817945,0.06968681599936676,0.07415738840787273,0.07183159999032021,0.07388036088709365,0.07196282708201732,0.07543970798727369,0.07504613847090465,0.07655447889023767,0.0726252880841837,0.07526592317413368,0.07372018828632691
2.3480000495910645,blue.png,0.059379532561246465,0.07607762677402816,0.07647910880793438,0.07813197560691543,0.07343945037596826,0.06967369552537149,0.07416011532069627,0.07182268164428254,0.07385651157575984,0.07198180371305987,0.07545729881016001,0.07506464571531364,0.076572315582313,0.07260695965373035,0.0752856150609988,0.07374211534763758
2.3480000495910645,blue.png,0.05940519236388116,0.07609112722767916,0.07649281042728548,0.07814782299373424,0.07345366608544183,0.06969332035700325,0.07417334755341382,0.07184215001370312,0.07389761643381315,0.0719743382304118,0.07545032506588996,0.07505633086637627,0.07656643707352126,0.07264316947974794,0.07527689788066123,0.07373134180681012
2.3480000495910645,blue.png,0.05940827690461599,0.0760719047274476,0.07647162097354185,0.07812656648475724,0.07343050967818614,0.0696768918248286,0.07415005703569139,0.07182277105126036,0.07385476813969233,0.07196881734953134,0.07544442420535376,0.07505237460760768,0.07655863631470636,0.07260611028744104,0.07527168992420315,0.07372883841143112
2.3480000495910645,blue.png,0.059393435346297666,0.07609063548930114,0.07649390566276379,0.07814648188906692,0.0734541354720754,0.0696857431156329,0.07417538156215925,0.07183636091188919,0.07388608293367421,0.07198833042244082,0.07546433960966344,0.0750708147967833,0.07657957989926098,0.0726334911743988,0.0752917170872351,0.07374707743490666
2.3480000495910645,blue.png,0.059432103864205346,0.07608574045726543,0.07648565786905978,0.0781408939529531,0.07344396542834823,0.0696909957755799,0.0741631998614311,0.07183667383631157,0.07388550178831838,0.07196787857626422,0.0754452512198986,0.07505190522097412,0.07655955273622903,0.07263286532555405,0.07527122053756959,0.07372566446371846
2.3480000495910645,blue.png,0.05939900093066704,0.07608272297176397,0.07648498731672612,0.07813767530175153,0.07344376426264813,0.06967745061843998,0.07416433980039833,0.07182907424319676,0.07386107133162872,0.07198571526833955,0.07546297615325166,0.0750699207270051,0.07657647300678169,0.07261064769156547,0.07529053244477897,0.07374645158606191
2.3480000495910645,blue.png,0.05942904167521497,0.07609767628880457,0.07649909126747742,0.07815358974380371,0.07345903050411111,0.06969577904889333,0.07417775084707151,0.07184548042362696,0.0739034949426049,0.07197887563453623,0.07545707529271546,0.0750619188024901,0.07657236028580192,0.07264645518618287,0.07528322342434209,0.07373563334174554
2.3630001544952393,blue.png,0.05942756646008092,0.07607869965776201,0.07647805827594498,0.07813233323482671,0.07343734931198946,0.06968002106905234,0.0741562484689055,0.07182853780132983,0.07386095957290645,0.07197324299493349,0.07545068269380124,0.07505715788092111,0.07656502891362058,0.07261026771190973,0.07527770254346162,0.07373252644926626
2.3630001544952393,blue.png,0.059403247762113545,0.07609658105332626,0.07649886775003287,0.07815142162459154,0.07346005868435605,0.06968920763602347,0.07418003072500595,0.07184217236544757,0.07388831810811974,0.07199114674224219,0.07546782648179846,0.07507340759914012,0.07658329028884056,0.07263463111336602,0.07529475692448102,0.07374917849888546
2.3630001544952393,blue.png,0.05944155865210994,0.07608967436428957,0.0764882506714166,0.07814373262449892,0.07344787698362791,0.0696935438744478,0.07416498800098753,0.07184215001370312,0.07388907806743122,0.07197199129724399,0.07544887220250036,0.07505487800298667,0.07656344193976425,0.07263615103198898,0.07527439448528224,0.0737287490044533
2.384999990463257,blue.png,0.059410534430805975,0.07608629925087682,0.07648690956674928,0.07813919522037449,0.07344666998942732,0.06968037869696363,0.07416592677425465,0.07183298579847644,0.07386234538106268,0.0719888445125633,0.075465054865486,0.0750718653287727,0.07657857407076049,0.07261431337765614,0.0752921194186353,0.07374893262969645
2.384999990463257,blue.png,0.059440485768376086,0.07610342068712958,0.07650454509312452,0.07815817185141705,0.07346437257103593,0.06970152344721835,0.07418233295468485,0.07185265533359711,0.07391017811419703,0.07198600584101747,0.07546362435384087,0.0750687137328045,0.07657814938761584,0.07265526177349826,0.0752891689883672,0.07374307647264916
2.8320000171661377,blue.png,0.05943869762881966,0.07608589691947662,0.07648556846208196,0.07813953049654132,0.07344387602137041,0.0696871959790225,0.07416179170153042,0.07183828316191235,0.07386732982007621,0.07197988146303672,0.0754572541066711,0.07506413162519117,0.07657043803577876,0.07262077303180373,0.07528389397667574,0.07374041661505898
2.8320000171661377,blue.png,0.05942124091640007,0.0761030630592183,0.07650572973558065,0.07815781422350576,0.07346656304199255,0.06969466146167057,0.07418622215822007,0.07184894494401753,0.0738965435500793,0.07199847811442353,0.07547625308945811,0.07508140952365512,0.07659142632382229,0.07264433177045962,0.07530349645656305,0.07375740394084501
2.8320000171661377,blue.png,0.059458970661040625,0.07609897268998297,0.0764973478314099,0.07815256156355876,0.0734570859023435,0.06970132228151825,0.07417408516098084,0.07185182831905226,0.07389835404138018,0.07198012733222572,0.07545774584504912,0.07506339401762414,0.07657202500963509,0.07264705868328317,0.07528340223829773,0.07373724266734633
2.8320000171661377,blue.png,0.05941998921871057,0.07609653634983735,0.07649676668605407,0.07814858295304572,0.07345681768141003,0.06968952056044585,0.0741758062453039,0.07184407226372627,0.07387200133466737,0.07199704760277839,0.07547437554292387,0.07508058250911027,0.07658840883832083,0.07262504221499469,0.07530179772398445,0.07375769451352293
2.8320000171661377,blue.png,0.05944640898065674,0.0761113108529223,0.0765116529478613,0.07816539146487611,0.07347210627461746,0.06970798310136593,0.07419078191408895,0.07186195365929052,0.07391478257355483,0.0719913926114312,0.07546892171727677,0.0750737652270514,0.07658378202721858,0.0726615426136902,0.0752946675175032,0.07374777033898477
2.8320000171661377,blue.png,0.059448778265569005,0.07609396589922499,0.07649162578482935,0.07814567722626653,0.073450335675518,0.06969356622619226,0.07416771491381108,0.07184523455443795,0.07387629286960279,0.07198931389919686,0.07546599363875313,0.07507262528808419,0.07657919991960524,0.07262904317725219,0.07529243234305767,0.07374846324306289
2.8320000171661377,blue.png,0.05942694061123617,0.07611388130353466,0.0765148045438295,0.07816682197652125,0.07347503435314111,0.06970402684259734,0.07419355353040141,0.07185965142961162,0.07390045510535898,0.07200527304473794,0.07548226570871659,0.07508737743942469,0.07659674603900266,0.0726499420583179,0.07530886087523232,0.0737641094641816
2.8320000171661377,blue.png,0.059466257329733055,0.07610288424526265,0.07650074529656711,0.07815557904906023,0.07345972340818922,0.06970463033969763,0.07417658855635983,0.07185542694990957,0.07390005277395878,0.07198204958224888,0.07545939987413881,0.07506482452926928,0.07657381314919151,0.07264904798853969,0.07528503391564297,0.07373943313830295
2.8320000171661377,blue.png,0.05942600183796905,0.07609979970452782,0.07649913597096633,0.07815072872051343,0.0734589858006222,0.06969066049941307,0.07417737086741577,0.07184541336839359,0.07387649403530289,0.07200247907668103,0.07547873413309265,0.07508543283765708,0.07659346033256773,0.07262924434295229,0.07530673745950907,0.07376296952521438
2.8320000171661377,blue.png,0.05945371800109363,0.07611949159139295,0.07651864904387581,0.07817245461612399,0.0734796388124989,0.06971401807236886,0.0741981132862703,0.07187002263903888,0.0739209963585134,0.07199738287894522,0.07547392850803476,0.07507953197712088,0.07659055460578854,0.07266815873004898,0.07530092600595069,0.07375454291755473
2.8320000171661377,blue.png,0.05944964998360276,0.07609646929460398,0.07649321275868567,0.07814759947628969,0.07345279436740808,0.0696947955721373,0.07417037477140126,0.07184921316495099,0.07387562231726913,0.07198727989045142,0.07546286439452939,0.07507083714852776,0.07657792587017129,0.07262881965980764,0.07529093477617917,0.0737470103796733
2.8320000171661377,blue.png,0.05943000280022655,0.0761142612831904,0.0765139551775402,0.07816626318290987,0.07347503435314111,0.06970261868269666,0.07419364293737923,0.0718612607552124,0.07390436666063865,0.07200833523372832,0.07548369622036173,0.07509055138713734,0.07660070229777124,0.07265356304091966,0.07531261596830081,0.07376712694968307
2.8320000171661377,blue.png,0.05946757608265592,0.0761096121203437,0.0765057520873251,0.07816105522645178,0.07346566897221433,0.06970907833684424,0.07418318232097415,0.07186253480464636,0.07390646772461745,0.07198707872475132,0.07546237265615137,0.07506985367177173,0.07657924462309415,0.07265546293919836,0.07529010776163432,0.07374457403952767
2.8320000171661377,blue.png,0.059427678218803195,0.0761045606260968,0.07650233227042344,0.07815493084847103,0.07346269619020178,0.06969580140063779,0.07418226589945148,0.07185629866794332,0.07388067381151603,0.072006748259872,0.07548072343834918,0.07508941144817012,0.07659739423959186,0.07263577105233324,0.07531051490432202,0.07376770809503891
2.8320000171661377,blue.png,0.05945380740807145,0.07612342549841708,0.07652115243925481,0.07817511447371417,0.073482343373578,0.06971743788927053,0.07420124253049404,0.07187630347923082,0.07392582433531575,0.07200218850400311,0.07547734832493642,0.07508411408473421,0.07659515906514633,0.0726726961341734,0.07530555281705294,0.07375908032167916
2.8320000171661377,blue.png,0.059458590681384885,0.07610413594295215,0.07649971711632217,0.07815381326124826,0.07345932107678903,0.0697013446332627,0.07417728146043795,0.07185739390342163,0.07388344542782849,0.07199420893123257,0.07546936875216588,0.0750779226515201,0.07658570427724173,0.07263659806687808,0.07529840025882724,0.07375393942045444
2.8320000171661377,blue.png,0.05943509899796236,0.07612040801291561,0.07651934194795393,0.07817109115971221,0.07348026466134365,0.06970722314205445,0.074200013184549,0.07186814509250464,0.07390856878859625,0.07201240325121919,0.07548769718261923,0.07509511114300622,0.07660508323968448,0.0726577428171328,0.0753171757241697,0.07377112791194057
2.8320000171661377,blue.png,0.05947937780372832,0.07611683173380276,0.07651196587228368,0.0781665984590767,0.0734713910187949,0.06971357103747976,0.07418836792568778,0.07187015674950561,0.07391417907645453,0.0719932925097099,0.07546894406902123,0.07507684976778624,0.07658603955340856,0.07266192259334595,0.07529730502334893,0.07375005021691922
2.8320000171661377,blue.png,0.059440731637565095,0.0761123613849117,0.07650917190422676,0.07816067524679604,0.07346884291992699,0.06970038350825113,0.07418666919310918,0.071859964354034,0.07388568060227402,0.07201077157387395,0.07548517143549578,0.0750941723697391,0.07660170812627173,0.07263901205527926,0.07531536523286882,0.07377099380147384
2.8320000171661377,blue.png,0.059459976489541114,0.07612988515256466,0.076526807430602,0.07818021067144998,0.0734874395713138,0.06972137179629466,0.07420508703054035,0.07188204787755584,0.07393322276273046,0.07200858110291733,0.07548345035117272,0.07509088666330417,0.07660152931231609,0.07268011691333257,0.07531239245085626,0.07376520469965991
2.8320000171661377,blue.png,0.05946914070476779,0.07611312134422318,0.07650754022688153,0.0781611446334296,0.07346685361467047,0.06970780428741029,0.07418378581807444,0.07186684869132623,0.07389265434654407,0.07200185322783628,0.07547676717958059,0.07508581281731282,0.07659296859418971,0.07264531524721565,0.07530608925891986,0.0737611590339135
2.8320000171661377,blue.png,0.05944424086144458,0.07612954987639783,0.07652756738991348,0.07817891427027157,0.07348844539981429,0.06971433099679124,0.07420729985324143,0.07187880687460982,0.07391592251252205,0.07201993578910063,0.0754947156303782,0.07510280014309885,0.07661203463221009,0.07266570003815889,0.07532446239286213,0.07377866044982201
2.8320000171661377,blue.png,0.059482015309574046,0.07612253142863887,0.0765175538083975,0.07817198522949043,0.0734766883822308,0.06971853312474884,0.07419319590249013,0.07187753282517587,0.0739186494253456,0.07199765109987868,0.07547339206616784,0.07508143187539958,0.07659028638485507,0.07266737641899304,0.0753016189100288,0.07375445351057691
2.8320000171661377,blue.png,0.05944699012601258,0.07611689878903613,0.07651364225311783,0.0781648997264981,0.07347331326881805,0.06970360215945269,0.07419248064666756,0.07186664752562613,0.07389133559362121,0.0720166500826657,0.07549134051696545,0.0751004755616755,0.07660794426297476,0.07264589639257149,0.0753213778521273,0.07377698406898786
2.8320000171661377,blue.png,0.05947086178909085,0.07613719417300155,0.07653351295393859,0.07818653621513083,0.07349423450162822,0.06972716089810858,0.07421194901608813,0.07189112268580469,0.07393673198660994,0.07201305145180839,0.07548818892099725,0.0750956699366176,0.07660586555074042,0.07268409552384561,0.07531659457881386,0.07376945153110642
2.8320000171661377,blue.png,0.059481925902596225,0.07611613882972465,0.07650964129086033,0.07816291042124157,0.07346931230656055,0.06970925715079988,0.07418742915242066,0.07187026850822789,0.07389343665760001,0.07200332844297033,0.07547795182203672,0.07508728803244687,0.07659366149826782,0.07264723749723881,0.07530720684614263,0.0737626118973031
2.8320000171661377,blue.png,0.059458970661040625,0.0761329696932995,0.07652969080563674,0.0781805012441279,0.07349081468472655,0.06971616383983657,0.07421063026316527,0.07188247256070049,0.07391820239045649,0.07202353441995793,0.0754979119298353,0.07510624231174497,0.07661391217874433,0.07266811402656007,0.07532765869231924,0.07378225908067931
2.8320000171661377,blue.png,0.05949855560047097,0.07612825347521943,0.0765221582677553,0.07817607559872575,0.07348209750438899,0.06972266819747307,0.07420023670199355,0.07188359014792325,0.07392443852715952,0.07200388723658172,0.07547833180169246,0.07508715392198013,0.07659372855350119,0.07267267378242895,0.07530711743916481,0.0737609578682134
2.8320000171661377,blue.png,0.0594504322946587,0.07612353725713936,0.07651896196829819,0.07817046531086747,0.07347988468168791,0.06970923479905543,0.0741996108531488,0.07187310717977372,0.07389582829425673,0.07202147805946804,0.07549415683676682,0.07510434241346627,0.07660865951879733,0.0726486903606284,0.07532493177949569,0.07378172263881239
2.8320000171661377,blue.png,0.05946585499833286,0.07614014460326965,0.07653539050047284,0.07818897255527646,0.07349792253946334,0.0697291502033651,0.07421682169637939,0.07189362608118369,0.073941202335501,0.07201727593151044,0.07548964178438684,0.07509853095990789,0.07660660315830745,0.07268604012561322,0.07531976852652651,0.07377374306604184
2.8320000171661377,blue.png,0.059453494483649075,0.0761201174402377,0.07651198822402813,0.07816628553465432,0.0734741849868518,0.06971305694735729,0.07419183244607835,0.07187478356060786,0.07390188561700411,0.07200934106222881,0.0754804105139268,0.07509131134644882,0.07659538258259088,0.07265108199728512,0.0753115207328225,0.0737680657229502
2.8320000171661377,blue.png,0.05941728465763148,0.07613746239393501,0.07653268593939375,0.07818512805523015,0.0734970955249185,0.06972132709280575,0.07421639701323474,0.07188712172354719,0.07392618196322703,0.07202947998398304,0.07550012475253638,0.07511010916353573,0.07661601324272313,0.0726720479335842,0.07533152554411,0.07378755644411522
2.8320000171661377,blue.png,0.05944361501259983,0.07613343907993306,0.07652564513989032,0.07818164118309512,0.0734886912690033,0.06972836789230917,0.07420546701019609,0.07189056389219331,0.07393333452145273,0.07200989985584019,0.07548087990056036,0.075091221939471,0.07659690250121384,0.0726777476284203,0.0753108725322333,0.07376618817641595
2.8320000171661377,blue.png,0.05940112434639029,0.07612653239089637,0.07651978898284303,0.0781737957207913,0.0734842432718567,0.06971283342991273,0.0742013095857274,0.07187894098507655,0.07390492545425004,0.07202735656825979,0.07549697315656818,0.0751086786518906,0.07661243696361028,0.07265421124150886,0.07532891039000873,0.0737870647057372
2.8320000171661377,blue.png,0.059407539297048964,0.0761462689812504,0.07653939146273034,0.07819561102337969,0.07350563389130042,0.06973527458134586,0.07422205200458193,0.07190173976442096,0.07395038890247213,0.07202534491125881,0.07549531912747849,0.07510554940766685,0.07661239226012137,0.07269279035243872,0.07532600466322954,0.07378123090043437
2.8320000171661377,blue.png,0.05940378420398047,0.07612704648101884,0.07651773262235315,0.07817413099695814,0.07348263394625591,0.06972003069162734,0.074197263919981,0.07188269607814504,0.07390935109965219,0.07201544308846511,0.07548497026979568,0.07509701104128493,0.07659956235880402,0.07265738518922152,0.07531565580554674,0.07377360895557511
2.8320000171661377,blue.png,0.059371195360564635,0.07614103867304786,0.076534809355117,0.07818872668608745,0.0735015435220651,0.06972318228759554,0.07421628525451246,0.07188975922939292,0.07393134521619621,0.07203386092589628,0.07550349986594913,0.07511464656766016,0.07661847193461321,0.07267537834350804,0.07533461008484484,0.0737918703307951
2.8320000171661377,blue.png,0.059409103919160836,0.07613797648405748,0.07652881908760298,0.07818631269768628,0.0734939439289503,0.06973160889525519,0.07420580228636292,0.07189483307538427,0.07393945889943349,0.07201497370183155,0.0754852608424736,0.07509636284069572,0.07660005409718204,0.07268297793662284,0.07531516406716872,0.07377119496717394
2.8320000171661377,blue.png,0.05937112830533127,0.07613185210607673,0.07652423697998964,0.07817900367724939,0.0734901888358818,0.0697171473165926,0.07420428236773996,0.07188367955490108,0.07391084866653069,0.07203202808285095,0.07550148820894816,0.07511357368392631,0.07661599089097867,0.07265812279678854,0.07533367131157771,0.07379169151683945
2.8320000171661377,blue.png,0.0593796666717132,0.07615089579235265,0.07654375005289912,0.07820052840715985,0.07351146769660326,0.06973923084011445,0.07422460010344983,0.07190585248540074,0.07395617800428606,0.07202965879793868,0.07549994593858074,0.0751103773844692,0.07661639322237887,0.07269708188737414,0.07533101145398753,0.07378552243536979
2.8320000171661377,blue.png,0.05937278233442096,0.07613109214676525,0.07652137595669936,0.07817848958712692,0.07348802071666964,0.06972434457830722,0.07419945439093761,0.07188814990379214,0.07391746478288946,0.07202042752747864,0.07549040174369832,0.07510259897739875,0.07660559732980696,0.07266295077359089,0.0753222719219055,0.07377866044982201
2.8320000171661377,blue.png,0.0593451555782742,0.0761466713126506,0.07654073256739766,0.07819583454082424,0.07350905370820209,0.06973002192139886,0.07422348251622707,0.07189952694171989,0.07393948125117794,0.07204094642888861,0.07551107710731948,0.07512200029158596,0.07662750203937316,0.07268170388718889,0.07534337196867132,0.0737990675925097
2.8320000171661377,blue.png,0.05937803499436796,0.07614410086203824,0.07653539050047284,0.07819373347684544,0.07350223642614322,0.06973905202615881,0.07421422889402257,0.07190372906967749,0.07394643264370354,0.07202051693445646,0.07549125110998763,0.07510228605297638,0.07660774309727467,0.07268883409367013,0.0753222272184166,0.07377698406898786
2.8320000171661377,blue.png,0.059341288726483435,0.0761355177921674,0.07652839440445833,0.07818439044766312,0.07349586617897345,0.06972277995619534,0.07421002676606497,0.07189192734860508,0.07391543077414403,0.07203634196953082,0.07550573504039466,0.07511806638456182,0.07662133295790349,0.07266308488405762,0.07533840988140224,0.07379636303143061
2.8320000171661377,blue.png,0.05936254523546043,0.07615386857436521,0.07654703575933405,0.07820446231418399,0.07351528984490512,0.06974309769190522,0.07422844460349615,0.07191273682269297,0.0739587037514095,0.07203285509739579,0.0755029634240822,0.07511355133218185,0.07661985774276944,0.07270088168393155,0.07533400658774454,0.07378912106622709
2.8470001220703125,blue.png,0.05935811959005828,0.07613207562352128,0.07652334291021143,0.07818126120343938,0.07349023353937072,0.06972698208415294,0.07420233776597235,0.07189264260442765,0.07391992347477955,0.07202355677170239,0.07549364274664434,0.07510595173906705,0.0766085254083306,0.07266733171550413,0.07532490942775123,0.07378246024637941
