Timestamp,Filename,1/Fp1,2/Fp2,3/Cz,4/Pz,5/P7,6/P8,7/O1,8/O2,9/CP5,10/CP6,11/CP1,12/CP2,13/PO3,14/PO4,15/P3,16/P4
0.24099993705749512,[1]white.jpg,0.03824446061187513,0.05135632918552508,0.05058953024024132,0.051502330780307144,0.04702199065947421,0.045221401181388045,0.04882264719279375,0.045558689005218624,0.04780754271835598,0.03873597547244733,0.04974865761383267,0.048758989424585036,0.05151719469036993,0.04828868636950092,0.04882573173352858,0.04802719331111828
0.24099993705749512,[1]white.jpg,0.0382818327286044,0.05137123779907677,0.0506005943537467,0.05151556301302469,0.047031356040400984,0.045241495399653366,0.04883013502718628,0.045585019360186975,0.047836331765214415,0.0384553269690665,0.049738956956739064,0.04874868527039114,0.05150483417568614,0.04831432382039116,0.04881245479732213,0.04801186001442194
0.24099993705749512,[1]white.jpg,0.03824050435310654,0.05136006192684912,0.05059037960653062,0.051504275382074756,0.0470206942582958,0.0452283749256581,0.04882094846021515,0.04557140714781369,0.04780021134617464,0.03858738107530845,0.049750289291177904,0.04876249864846452,0.051519318106093184,0.04828826168635627,0.04882872686728559,0.04803061312801994
0.24099993705749512,[1]white.jpg,0.03828140804545975,0.051386079357395094,0.050619280412111334,0.051534316126622695,0.047050735002843735,0.04525624755099387,0.04885237501291931,0.04559351302307999,0.047855576617190435,0.038657185573242374,0.04976477322158494,0.048774814459659394,0.051532460931832905,0.048332093457233126,0.0488399250912577,0.04804020202639127
0.24099993705749512,[1]white.jpg,0.03826513597549629,0.051377742156713264,0.050606316400327256,0.0515217097427499,0.047034395877646906,0.04524887147532362,0.04883415834118823,0.045598497462093525,0.047828329840699416,0.03842479448614055,0.04975567606159163,0.0487672595700335,0.05152206737066119,0.048312759198279286,0.04883140907662023,0.048031641308264886
0.24099993705749512,[1]white.jpg,0.03825583764980288,0.05139253901154268,0.05062634356335921,0.051540082876692164,0.04705706054652459,0.045258549780672765,0.048859058184511445,0.04559610582543681,0.047846434753708214,0.03874084815273859,0.04978607443405085,0.048796853279692326,0.051554790324543756,0.048325902024019006,0.04886395321654716,0.04806429720691409
0.24099993705749512,[1]white.jpg,0.03828961113567485,0.05140671001752734,0.050636848883253205,0.05155291277800951,0.04706649298268473,0.045276833507637206,0.048867104812515355,0.045623933747283664,0.047874240323810616,0.03838632713393297,0.049775904390323686,0.048785431538275664,0.05154153574008176,0.04834984074233064,0.04884969280358467,0.04804733223287251
0.24099993705749512,[1]white.jpg,0.038238045661216455,0.0513945283167992,0.05062569536277001,0.051540127580181075,0.04705551827615717,0.04526098612081839,0.048856621844365816,0.04560815341569822,0.047835862378580854,0.03813310422099879,0.049784666274150166,0.0487959145064252,0.051552130466953575,0.048318145968693015,0.048862813277579936,0.04806148088711272
0.24099993705749512,[1]white.jpg,0.03826549360340757,0.05141667889555441,0.050649947005504015,0.05156491566478201,0.04708166981716988,0.04528253320247331,0.04888292984758971,0.04562147505539358,0.04788479034719352,0.03821745970457312,0.049793629323676744,0.04880282119546189,0.051559506542623826,0.04835632274822268,0.04886871413811614,0.04806581712553705
0.24099993705749512,[1]white.jpg,0.038254809469557935,0.05140244083433638,0.050631707982028484,0.05154728013840677,0.04706010038377051,0.045271603199434664,0.048860958082790146,0.04562453724438396,0.04785582248637944,0.03800771093460452,0.0497778489920913,0.0487889631138996,0.05154285449300462,0.04833354632062272,0.0488533808414198,0.0480512884916411
0.24099993705749512,[1]white.jpg,0.03823636928038231,0.05141039805536247,0.050644470828112464,0.051558366603656605,0.04707561249442249,0.0452753359407587,0.04887892888533221,0.045614836587290354,0.047860672814926244,0.03834046135431068,0.04980160889644729,0.04881292418395569,0.05156800020551684,0.048339715402092386,0.04887955473417696,0.04807875878557667
0.24099993705749512,[1]white.jpg,0.0382628784493063,0.05141692476474342,0.05064757772059175,0.051563753374070334,0.047076975950834266,0.04528729412404229,0.0488792865132435,0.045634126142755284,0.047884857402426886,0.038089831243733316,0.049782341692726814,0.04879327700057948,0.05154609549595064,0.048357485038934354,0.04885646538215463,0.04805452949458712
0.24099993705749512,[1]white.jpg,0.038211380030081274,0.05139942334883491,0.050630992726205915,0.051545983737228365,0.04706018979074833,0.045268116327299636,0.04886451201015854,0.04561432249716788,0.04784046683793865,0.03823498347222608,0.04978806373930737,0.0488020165326615,0.0515541197722101,0.04832478443679624,0.04886732832995991,0.04806771702381575
0.2569999694824219,[1]white.jpg,0.038234804658270435,0.05142110454095656,0.05065484203753973,0.051570414193918016,0.0470861625178054,0.04528968576069901,0.04889113293780481,0.04562728650895196,0.04788604204488302,0.038327251473337584,0.04979646799522257,0.048808722055998094,0.051561562903113714,0.04836094955932493,0.048873385652707296,0.04807191915177335
0.2569999694824219,[1]white.jpg,0.03822244414358665,0.05140514539541547,0.050633853749496194,0.05155101287973081,0.04706253672391614,0.04527685585938166,0.04886712716425981,0.045628269985707993,0.04785640363173528,0.0381051421886852,0.049778810117102876,0.04879325464883502,0.051543368583127094,0.048338486056147344,0.048856063050754434,0.048056272930654634
0.2569999694824219,[1]white.jpg,0.038188804768181414,0.051412029732707705,0.05064509667695721,0.051561361737413616,0.0470767077299008,0.04527967217918303,0.04888324277201209,0.045618926956525675,0.047855621320679345,0.03842597912859668,0.04980046895748007,0.048815092303167856,0.051566703804338435,0.048341525893393265,0.04888069467314418,0.048081418643166854
0.2569999694824219,[1]white.jpg,0.038217705573762126,0.05142123865142329,0.050649991708992925,0.05156873781308387,0.04708044047122484,0.045292502080500376,0.048885388539479796,0.045640362279458314,0.04788436566404887,0.038174991390108035,0.04978645441370659,0.048800049579149435,0.051549694126807946,0.04836269299539244,0.048862299187457464,0.04806092209350134
0.2569999694824219,[1]white.jpg,0.038173940858118635,0.05140559243030458,0.050634658412296585,0.05155210811520912,0.04706495071231731,0.04527327958026881,0.04886976467010554,0.04562053628212646,0.047840288023983005,0.03830250809222556,0.04979311523355427,0.048809057332164923,0.05155818778970096,0.04832970182057641,0.04887336330096284,0.0480740425674966
0.2569999694824219,[1]white.jpg,0.038197700762474626,0.05142852532011572,0.05065978177306435,0.05157834906319965,0.04709280098590862,0.04529648069101342,0.04889774905416358,0.045636517779412,0.04788566206522728,0.03839808415151646,0.04980279353890342,0.04881650046306854,0.0515665696938717,0.0483652634460048,0.048880247638255075,0.04807871408208776
0.2569999694824219,[1]white.jpg,0.03818873771294805,0.05141294615423037,0.050638614671065174,0.051558366603656605,0.047068974026319266,0.045281885001884105,0.048871575161406416,0.04563323207297707,0.04785673890790211,0.03816911288131629,0.04978408512879433,0.04879960254426033,0.05154690015875103,0.04834221879747138,0.048861293358956975,0.048061078555712525
0.2569999694824219,[1]white.jpg,0.038167838831882336,0.051419316401400135,0.05064920939793699,0.051567754336327834,0.04708276505264819,0.04528356138271825,0.0488868861063583,0.04562518544497316,0.04785917524804774,0.0384894357311053,0.04980847088199507,0.04882385418699434,0.05157314110674156,0.0483465103324068,0.048888204859281165,0.04808868296011483
0.2569999694824219,[1]white.jpg,0.03819573380896256,0.051430939308516894,0.050657188970707534,0.051577611455632624,0.04708980585215161,0.04529862645848113,0.04889242933898322,0.04564679958186144,0.04789078061470754,0.03822952964657898,0.04979541746323317,0.04880945966356512,0.05155695844375592,0.04836980085012923,0.04887007759452791,0.04806910283197198
0.2569999694824219,[1]white.jpg,0.03814991273282918,0.05141466723855343,0.050641855674011194,0.05156111586822461,0.04707400316882171,0.045280879173383616,0.04887660430390886,0.045630549863642435,0.047846144181030295,0.03835297833120565,0.04979988781212423,0.04881629929736844,0.05156366396709251,0.04833669791659092,0.04887819127776519,0.04808077044257765
0.2569999694824219,[1]white.jpg,0.03818272509368957,0.0514334874073848,0.050664229770210956,0.05158348996442437,0.04709821010806681,0.0452999899148929,0.048901727664676625,0.04564143516319217,0.04789004300714052,0.038443145268338356,0.04980818030931715,0.04882193193697118,0.05157081652531821,0.048369577332684675,0.04888326512375654,0.048083609114123474
0.2569999694824219,[1]white.jpg,0.03817901470410999,0.05141871290429984,0.05064509667695721,0.051564803906059734,0.04707675243338971,0.04528718236532001,0.04887841479520974,0.045640831666091876,0.04786666308244027,0.03819121875658259,0.04979315993704318,0.0488081185588978,0.05155510324896613,0.04835064540513103,0.04886846826892713,0.0480685440383606
0.2569999694824219,[1]white.jpg,0.03815281845960837,0.051425597241592076,0.05065788187478565,0.05157568920560947,0.04709266687544189,0.04528986457465465,0.04889526801052904,0.045632740334599055,0.04786386911438335,0.03851279330406109,0.0498136564867087,0.048828436294607674,0.05157696325504342,0.04835013131500856,0.04889211641456084,0.04809252746016114
0.2569999694824219,[1]white.jpg,0.03818867065771468,0.051432839206795596,0.050662620444610174,0.05158214885975705,0.04709599728536573,0.045301934516660515,0.048896676170429726,0.04565205224180844,0.04789531801883197,0.03826448777490708,0.04980069247492462,0.04881435469560083,0.05156129468218025,0.04837393592285346,0.04887512908877481,0.04807323790469621
0.2569999694824219,[1]white.jpg,0.0381460011775495,0.05141661184032104,0.05064719774093601,0.05156534034792666,0.0470800604915691,0.045283606086207163,0.048881342873733385,0.045635266081722504,0.04785041336422126,0.038366478784856654,0.04980469343718212,0.048820568480559406,0.051567553170627736,0.04833989421604803,0.04888398037957911,0.04808383263156803
0.2569999694824219,[1]white.jpg,0.038174566706963384,0.051436080209741615,0.05067019768598052,0.05158876497611582,0.04710520620408132,0.04530325326958338,0.04890704737985699,0.04564586080859432,0.04789384280369792,0.038475912925709836,0.04981361178321979,0.04882720694866263,0.051575800964331744,0.04837270657690842,0.04889066355117125,0.048087610076380974
0.2569999694824219,[1]white.jpg,0.03816272028240207,0.05142177509329022,0.050651086944471235,0.05157072711834039,0.04708325679102621,0.045291451548510976,0.04888409213830139,0.04564534671847185,0.047869524105730546,0.03822420993139862,0.0497953504079998,0.04881093487869917,0.051556600815844636,0.04835183004758716,0.048872536286417995,0.04807037688140593
0.2569999694824219,[1]white.jpg,0.038147074061283356,0.05142691599451494,0.050661279339942855,0.05157931018821123,0.047095259677798706,0.04529261383922265,0.04889745848148566,0.04563537784044478,0.04786912177433035,0.03855036658649046,0.049819669105967176,0.048835678259811194,0.05158264059813507,0.0483553616232111,0.04889951484197555,0.048099121224775464
0.2569999694824219,[1]white.jpg,0.03818753071874746,0.0514376895353424,0.05066883422956875,0.051588943790071465,0.04710116053833491,0.04530828241208582,0.048902442920499195,0.04565889187561177,0.04789864842875581,0.03830340216200377,0.04980326292553698,0.04881775216075804,0.051563842781048155,0.04837702046358829,0.04887895123707667,0.04807609892798649
0.2569999694824219,[1]white.jpg,0.03814758815140583,0.05141933875314459,0.05065084107528223,0.051569698938095446,0.04708276505264819,0.0452873388275312,0.04888550029820207,0.04564004935503594,0.04785546485846816,0.03839882175908348,0.04980907437909536,0.04882593289922868,0.05157166589160751,0.04834483395157265,0.04888941185348175,0.04808859355313701
0.2569999694824219,[1]white.jpg,0.03817890294538771,0.0514416904975999,0.05067634441570573,0.05159564931340806,0.047110034180883664,0.04530948940628641,0.04891328351656002,0.04565464504416526,0.0479003024578455,0.038513977946517224,0.049819669105967176,0.04883435950688833,0.05158116538300102,0.04837988148687857,0.04889792786811922,0.04809487439332895
0.2569999694824219,[1]white.jpg,0.03816558130569235,0.05142796652650434,0.05065783717129674,0.05157830435971074,0.047088688264928846,0.045298648810225585,0.04889075295814907,0.04565518148603219,0.0478779507133902,0.03825630703643644,0.049801631248191744,0.04881817684390269,0.05156268049033648,0.04835996608256889,0.04888006882429943,0.048077462384398265
0.2569999694824219,[1]white.jpg,0.038141083793769334,0.05143196748876184,0.050666666110356584,0.051585702787125445,0.047099841785412044,0.04529876056894786,0.048903448748999684,0.0456449220353272,0.04787493322788873,0.038574975857135756,0.049823111274613294,0.048839679222068694,0.05158592630457,0.04835844616394593,0.04890474515017809,0.04810233987597703
0.2569999694824219,[1]white.jpg,0.038176131329075255,0.051440707020843864,0.05067270108135952,0.05159316826977352,0.04710377569243618,0.045311031676653825,0.04890483455715591,0.04566179760239096,0.04790517513813676,0.038332660595495775,0.04980717448081666,0.04882255778581593,0.05156768728109447,0.04837941210024501,0.04888476269063505,0.04807980931756607
0.2569999694824219,[1]white.jpg,0.038134177104732644,0.05142139511363448,0.05065426089218389,0.05157396812128641,0.04708446378522679,0.04528979751942128,0.048889255391270564,0.04564342446844869,0.04785917524804774,0.03842834841350894,0.04980994609712912,0.04882760928006283,0.05157340932767503,0.04834429750970572,0.04889227287677203,0.04808957702989304
0.2569999694824219,[1]white.jpg,0.038166229506281554,0.051441936366788905,0.05067793138956206,0.05159790683959804,0.04710967655297238,0.04530928824058631,0.04891484813867189,0.04565363921566477,0.0479047057515032,0.03854417515327634,0.0498216584112237,0.04883699701273406,0.05158407110978021,0.048379769728156295,0.04890175001642108,0.04809684134684102
0.2569999694824219,[1]white.jpg,0.03816182621262386,0.051427743009059786,0.05065922297945297,0.05158045012717845,0.04708781654689509,0.04529880527243677,0.04889169173141619,0.04565641083197723,0.047881482289014135,0.03828789005135179,0.049802055931336395,0.04881949559682555,0.05156399924325934,0.04836141894595849,0.04888254986793397,0.048078132936731924
0.2569999694824219,[1]white.jpg,0.03815252788693045,0.051431408695150456,0.05066811897374618,0.0515880273685488,0.04709843362551136,0.04529947582477043,0.04890313582457731,0.04564717956151718,0.047877481326756635,0.038611364497108995,0.049824251213580514,0.048842048506980956,0.0515876250371486,0.04835960845465761,0.04890823202231312,0.04810453034693365
0.2569999694824219,[1]white.jpg,0.038190615259482294,0.05144245045691138,0.05067636676745019,0.05159821976402042,0.04710525090757023,0.04531425032785539,0.04890946136825816,0.04566669263442667,0.047912350048106914,0.038363617761566375,0.049811488367496534,0.048827765742274015,0.05157231409219672,0.04838408361483617,0.048891535269205005,0.04808492786704634
0.2569999694824219,[1]white.jpg,0.03814671643337207,0.05142649131137029,0.05066034056667573,0.0515810759760232,0.04708828593352865,0.0452951395863461,0.0488929881325946,0.045649168866773705,0.04786818300106323,0.03844897907364119,0.04981517640533166,0.04883380071327695,0.051577946731799454,0.04834887961731906,0.048899626600697826,0.048095276724729144
0.2569999694824219,[1]white.jpg,0.03818397679137907,0.05144625025346878,0.05068340756695361,0.05160425473502335,0.047112358762307016,0.04531480912146677,0.048918446769529195,0.04566005416632345,0.04791132186786197,0.0385812566973277,0.049825815835692386,0.04884265200408125,0.05158809442378216,0.04838341306250251,0.04890847789150213,0.04810238457946594
0.2569999694824219,[1]white.jpg,0.03818071343668859,0.051431788674806196,0.05066358156962175,0.05158623922899237,0.04708947057598478,0.04530367795272803,0.04889493273436221,0.04566166349192423,0.04788825486758409,0.0383121416940858,0.04980507341683786,0.04882322833814959,0.05156672615608289,0.04836298356807036,0.048887534306947505,0.04808173156758923
0.27300000190734863,[1]white.jpg,0.038160842735867825,0.05143525319519677,0.05067158349413675,0.05159283299360669,0.04709981943366759,0.04530287328992764,0.04890675680717907,0.045648073631295395,0.04788487975417134,0.03863559378809855,0.04982856510026039,0.04884660826284984,0.051592274199995306,0.048361575408169676,0.04891426699331605,0.04810924656501372
0.27300000190734863,[1]white.jpg,0.038196851396185325,0.051445892625557495,0.05067949601167393,0.05160311479605613,0.04710735197154903,0.0453172454616124,0.04891390936540477,0.04567085005889536,0.04791932379237697,0.038397950041049726,0.04981403646636444,0.04883051500684202,0.0515756221503761,0.048385916457881505,0.04889560328669587,0.04808801240778117
0.27300000190734863,[1]white.jpg,0.038155075985798356,0.05142785476778206,0.05066139109866513,0.05158404875803575,0.04708884472714003,0.045297128891602624,0.04889497743785112,0.04565332629124239,0.047876475498256146,0.038479779777500604,0.049819490292011534,0.04883836046914583,0.051582797060346255,0.04835317115225448,0.04890516983332274,0.04810003764629813
0.27300000190734863,[1]white.jpg,0.03819168814321615,0.05145076530584875,0.05068792261933358,0.05161093790661549,0.04711823727109876,0.04531905595291328,0.048925308755076974,0.04566635735825984,0.047920866062744386,0.03861357731981007,0.0498313590683173,0.048847479980883596,0.051593749415129356,0.04838685523114863,0.048914490510760605,0.04810748077720175
0.27300000190734863,[1]white.jpg,0.038198371314808285,0.05143657194811963,0.05066876717433538,0.05159283299360669,0.047096511375488204,0.045306986010907414,0.04890107946408742,0.04566673733791558,0.04790238117007985,0.038330470124539155,0.0498134553210086,0.04883073852428657,0.051574459859664426,0.0483694655739624,0.048895916211118245,0.04808892882930384
0.27300000190734863,[1]white.jpg,0.03818048991924404,0.05144115405573297,0.05067898192155146,0.05160105843556624,0.04710929657331664,0.04530716482486306,0.048915295173560996,0.04565679081163297,0.047896815585710475,0.03866219236400036,0.04983674583873103,0.048854006690264545,0.0515996279239211,0.04836655984718321,0.04892242538004224,0.04811613090230595
0.27300000190734863,[1]white.jpg,0.0382218182947419,0.051452084058771615,0.05068783321235576,0.051611563755460235,0.047117276146087184,0.04532200638318138,0.04892195599340868,0.045676773271176016,0.04793284659777243,0.038428773096653594,0.04982331244031339,0.048839008669735035,0.05158328879872427,0.04839275609168483,0.04890440987401126,0.04809547789042924
0.27300000190734863,[1]white.jpg,0.03817201860809548,0.0514326380410955,0.05066836484293519,0.051590709577883434,0.047096980762121765,0.045300191080593,0.048901772368165536,0.04565623201802159,0.04788584087918292,0.03849678945503109,0.049824340620558336,0.04884278611454798,0.051586127470270096,0.04835603217554476,0.048910020161869544,0.04810327864924415
0.27300000190734863,[1]white.jpg,0.0382100165736695,0.05145333575646111,0.05069237061648019,0.05161529649678427,0.04712319935836785,0.04532180521748128,0.04892866151674527,0.04566881605014993,0.04792942678087077,0.03864104761374564,0.0498366117282643,0.04885322437920861,0.05159828681925378,0.04839183967016216,0.04892077135095255,0.04811195112609281
0.27300000190734863,[1]white.jpg,0.038214017535927,0.051440505855143766,0.05067460097963822,0.051598510336698336,0.047102367532535494,0.04531286451969916,0.04890657799322343,0.04567243703275169,0.047909958411450196,0.038354945284717716,0.049817009248376995,0.04883536533538882,0.05157814789749955,0.048375053510076226,0.04890110181583188,0.04809221453573877
0.27300000190734863,[1]white.jpg,0.03819416918685069,0.05144401507902325,0.0506831616977646,0.051605327618757205,0.0471127163902183,0.0453121939673655,0.04891864793522929,0.045660009462834536,0.04790180002472401,0.038682465396221326,0.04983942804806567,0.04885845468741115,0.05160266776116702,0.04837098549258536,0.04892740981905577,0.04811946131222979
0.27300000190734863,[1]white.jpg,0.03824030318740644,0.051454363936706056,0.05069127538100188,0.05161534120027318,0.04711951132053272,0.04532687906347264,0.04892419116785421,0.04567961194272184,0.047935864083273896,0.03845078956494207,0.04982411710311378,0.048841869693025314,0.05158518869700297,0.04839655588824223,0.048907963801379656,0.04809791423057488
0.27300000190734863,[1]white.jpg,0.03819830425957492,0.05143406855274064,0.05067053296214735,0.051594039987807275,0.04709854538423364,0.045304460263783965,0.04890407459784443,0.04566090353261275,0.04788908188212894,0.03851695072852978,0.04982641933279268,0.04884640709714974,0.05158939082496057,0.04836074839362483,0.04891471402820516,0.048106586707423536
0.27300000190734863,[1]white.jpg,0.0382390738414614,0.05145742612569643,0.05069789149736065,0.05162148792999839,0.04712838496308148,0.0453260967524167,0.048934495322048105,0.045673398157763265,0.047935439400129246,0.038671423634460404,0.04984246788531159,0.048859773440334014,0.05160400886583434,0.04839738290278708,0.04892884033070091,0.04811856724245158
0.27300000190734863,[1]white.jpg,0.03824403592873048,0.05144506561101265,0.05068059124715224,0.05160581935713522,0.0471089165936609,0.045317312516845766,0.048912925888648734,0.0456783825967768,0.04791708861793144,0.03838784705255593,0.04982279835019092,0.048841243844180565,0.051583557019657736,0.04838171432992391,0.048908723760691136,0.048098450672441805
0.7259998321533203,[1]white.jpg,0.03820968129750267,0.05144756900639164,0.050688190840267044,0.051611608458949146,0.047119354858321534,0.0453155467290338,0.04892524169984361,0.045665686805926184,0.04790828203061605,0.038716708268726856,0.04984595475744662,0.04886464612062527,0.05160863567693659,0.04837670753916592,0.04893498706042612,0.0481260103733552
0.7259998321533203,[1]white.jpg,0.03824984738228886,0.051459035451297215,0.050697042131071346,0.0516219349648875,0.04712690974794743,0.04533020947339648,0.04893127667084654,0.04568508812011339,0.047943351917666424,0.038489592193316484,0.04982999561190553,0.0488470776494834,0.05159015078427205,0.04840111564411111,0.04891457991773843,0.048102585745166036
0.7259998321533203,[1]white.jpg,0.03821305641091542,0.05143802481150923,0.0506760091395389,0.05159987379311011,0.047104178023836374,0.04530792478417454,0.04890912609209133,0.045666916151871226,0.047896770882221565,0.038546164458532865,0.04983254371077343,0.048852062088496934,0.051594084691296185,0.04836539755647153,0.04892083840618591,0.048111638201670436
0.7259998321533203,[1]white.jpg,0.03824879685029946,0.05146124827399829,0.05070359119219675,0.051627277031812316,0.047133302346861645,0.04533034358386321,0.04893865274651679,0.045678449652010164,0.04794075911530961,0.03870255961448665,0.04984740762083621,0.04886460141713636,0.051607942772858476,0.04840028862956627,0.048933780066225535,0.04812223292854225
0.7259998321533203,[1]white.jpg,0.03824376770779701,0.051446697288357886,0.050684145174520634,0.051609283877525794,0.04711097295415079,0.045319502987802386,0.048914870490416346,0.045679969570633125,0.04792169307728923,0.03839980523583952,0.04982489941416972,0.0488430766872259,0.05158476401385832,0.048382340178768656,0.0489106907142032,0.0480986518381419
0.7259998321533203,[1]white.jpg,0.03822445580058763,0.05144859718663659,0.05069098480832396,0.05161415655781705,0.04712018187286638,0.04531706664765676,0.04892559932775489,0.045666446765237664,0.047911344219606425,0.03874031171087166,0.04984856991154789,0.048867060109026444,0.051610557926959746,0.048377579257199675,0.04893793749069422,0.04812741853325588
0.7259998321533203,[1]white.jpg,0.03827349552792257,0.051460801239109184,0.05070151247996241,0.05162653942424529,0.047130374268338,0.04533396456646497,0.04893507646740394,0.04569005020738247,0.04795066093810331,0.0385163919349184,0.04983609763814183,0.04885246441989713,0.05159524698200786,0.048405965972657915,0.04892077135095255,0.04810739137022393
0.7259998321533203,[1]white.jpg,0.03822760739655583,0.0514416904975999,0.050681954703564014,0.051605662894924034,0.04711057062275059,0.045312462188298964,0.048914401103782784,0.04567076065191754,0.04790461634452538,0.03856491757213087,0.04983833281258736,0.04885693476878819,0.051599605572176646,0.04836980085012923,0.04892745452254468,0.04811599679183922
0.7259998321533203,[1]white.jpg,0.038258095175992865,0.051465897436844994,0.05071029671553334,0.051633803741193265,0.04714170660277684,0.04533573035427694,0.04894781696174347,0.04568580337593596,0.0479497668683251,0.03873610958291406,0.04985583422849586,0.04887222336199562,0.051616235270051394,0.048407396484303054,0.048943257205874585,0.04812972076293478
0.7259998321533203,[1]white.jpg,0.03826734879819736,0.051453939253561405,0.05069364466591414,0.05161849279624138,0.047121679439744886,0.045327884891973126,0.04892515229286579,0.045691592477749884,0.047929829112270964,0.03843704324210206,0.049832051972395416,0.04884993867277368,0.051591089557539174,0.04838922451606089,0.04891871499046266,0.048105312657989584
0.7259998321533203,[1]white.jpg,0.03824665108283175,0.051452888721572006,0.05069753386944936,0.05162001271486434,0.0471274238380699,0.04532162640352564,0.04893179076096901,0.04567281701240743,0.047917110969675894,0.03877093360077543,0.049855543655817944,0.048873631521896305,0.05161645878749595,0.048382295475279745,0.048945738249509124,0.04813338644902545
0.7259998321533203,[1]white.jpg,0.0382866830571512,0.05146681385836766,0.05070958145971077,0.05163434018306019,0.04713895733820884,0.04534002188921236,0.04894256430179647,0.04569621928885213,0.04795765703411782,0.03855291468535837,0.04984418896963465,0.048860533399645495,0.05160273481640039,0.04841311853088361,0.048929779103968035,0.04811476744589418
0.7259998321533203,[1]white.jpg,0.038254094213735365,0.05144806074476966,0.05069073893913495,0.05161462594445061,0.04711966778274391,0.045320039429669313,0.04892296182190917,0.045681444785767175,0.04791112070216187,0.03859339369456693,0.04984599946093553,0.04886471317585864,0.05160584170887968,0.0483772663327773,0.04893545644705968,0.048122635259942446
0.7259998321533203,[1]white.jpg,0.038282525632682515,0.051471127745047536,0.05071829864004834,0.051641470389541436,0.04715008850694758,0.04534116182817958,0.04895318138041274,0.04568951376551554,0.04795629357770605,0.03876040592913698,0.04986365733905522,0.048879778251621514,0.05162206907535423,0.04841247033029441,0.04895128148213404,0.048136359231038005
0.7259998321533203,[1]white.jpg,0.03828335264722736,0.051459370727464045,0.05070055135495083,0.051625421837022525,0.04712939079158197,0.04533340577285359,0.04892933206907893,0.045695638143496295,0.04793774162980814,0.038458769137712616,0.04983900336492102,0.04885659949262136,0.05159701276981983,0.048397494661509353,0.04892618047311073,0.04811157114643707
0.7259998321533203,[1]white.jpg,0.0382649795132851,0.05145811902977455,0.050705088759075256,0.051628573432990724,0.047136833922485584,0.045328510740817875,0.048941491418062616,0.04568251766950103,0.047925671687802276,0.038795051133042706,0.0498635679320774,0.04888181226036695,0.05162325371781036,0.04838989506839455,0.04895472365078016,0.04814114250435144
0.7259998321533203,[1]white.jpg,0.038295243775277585,0.05147363114042653,0.050718857433659725,0.051643906729687064,0.04714928384414719,0.04534829203466082,0.04895119207515622,0.04570491411744525,0.04796704476678905,0.0385779039356594,0.04985114036216025,0.0488679318270602,0.05160812158681412,0.04842013697864258,0.04893789278720531,0.048122255280286706
0.7259998321533203,[1]white.jpg,0.038251099079978354,0.05145277696284973,0.05069663979967115,0.05162086208115364,0.04712608273340258,0.04532529208961631,0.048928974441167644,0.04568595983814715,0.04791898851621014,0.038595226537612264,0.04985152034181599,0.048870725795117115,0.051610423816493015,0.0483821166613241,0.04894263135702984,0.04812858082396756
0.7259998321533203,[1]white.jpg,0.03827646830993513,0.05147629099801671,0.05072460183198474,0.05164844413381149,0.047156302291906156,0.04534710739220469,0.048959596331071414,0.045695973419663125,0.047961926217308784,0.038791340743463125,0.04986951349610251,0.0488868861063583,0.05162812639810162,0.048417924155941504,0.048959305758393495,0.04814319886484133
0.7259998321533203,[1]white.jpg,0.03828046927219263,0.05146650093394529,0.05070913442482167,0.051634764866204844,0.04713745977133033,0.04534212295319116,0.04893936800233936,0.04570634462909039,0.04794762110085739,0.03847137552158541,0.0498477652487475,0.04886656837064843,0.05160526056352384,0.04840500484764634,0.04893688695870482,0.04812048949247474
0.7259998321533203,[1]white.jpg,0.038267102929008354,0.05146605389905618,0.050713671828946094,0.051637134151117106,0.0471432265213998,0.04533702675545535,0.04894750403732109,0.045689156137604256,0.04793383007452846,0.038935576550433226,0.04987110046995884,0.048890395330237785,0.051630383924291604,0.0483960194463753,0.04896399962472911,0.048149032670144164
0.7259998321533203,[1]white.jpg,0.03831916014184476,0.05148440468125399,0.0507303238785653,0.05165548493331491,0.04715853746635169,0.04536002670049986,0.04896189856075031,0.04571499475419459,0.047983406243730334,0.03905549365943595,0.04986537842337828,0.04888295219933417,0.05162240435152106,0.04843354802531576,0.048954120153679864,0.04813613571359345
0.7259998321533203,[1]white.jpg,0.03829130986825345,0.05146911608804656,0.05071429767779084,0.05163829644182878,0.047140454905087344,0.04534386638925867,0.0489437489442526,0.04570265659125526,0.047939820342042486,0.039046597665142735,0.04986984877226934,0.048890440033726695,0.05162779112193479,0.04840066860922201,0.048962837334017434,0.04814711042012101
0.7259998321533203,[1]white.jpg,0.03831907073486694,0.05149839687328301,0.05074784764621826,0.05167126526490036,0.04717606123400465,0.04537287895356166,0.04898013758422584,0.04571823575714061,0.047989396511244356,0.039219287242804435,0.049893496917903055,0.04891209887410389,0.05165126045361286,0.04844190757774205,0.048985502002895115,0.04816758461804207
0.7259998321533203,[1]white.jpg,0.038316388525532305,0.05149211603309107,0.05073698469841298,0.051662101049673684,0.04716220315244236,0.045371806069827804,0.04896643596487474,0.04573180326602498,0.04798074638614015,0.03888135121838465,0.04987704603398395,0.048896877336129824,0.05163393785166,0.04843446444683843,0.04896829115966453,0.04815006085038911
0.7259998321533203,[1]white.jpg,0.03829198042058711,0.05149906742561667,0.050749144047396666,0.0516726957765455,0.047176351806682566,0.04537460003788472,0.04898281979356048,0.045724829521754926,0.04797413026978138,0.03919597437333755,0.04990905373204395,0.048929399124312295,0.05166706313694276,0.04843357037706022,0.04900414335777084,0.04818716474618492
0.7259998321533203,[1]white.jpg,0.03833335349957389,0.051521597984027626,0.05077026644590693,0.05169547220414546,0.047196557783670164,0.04540135507599772,0.04900181877634749,0.04575395384478019,0.048023169997116325,0.03897384273694071,0.04990424810698606,0.048922537138764516,0.05165926237812786,0.048471501287400874,0.0489947109216107,0.04817513950766796
0.7259998321533203,[1]white.jpg,0.03829944590323518,0.051506376446053555,0.05075365909977664,0.05167799313998141,0.04717894460903938,0.04538425599148941,0.048984026787761065,0.04574257680685244,0.04797904765356155,0.038976346132319706,0.04990876315936603,0.04892962264175685,0.05166473855551941,0.04843855481607375,0.04900275754961461,0.04818557777232859
0.7259998321533203,[1]white.jpg,0.038324055173880475,0.051533310298122206,0.05078490683852516,0.05170861502988518,0.047212695743166895,0.04540835117201223,0.04901782262537749,0.04575408795524692,0.048024689915739285,0.03915495892226206,0.049930399647998766,0.04894866632803277,0.05168507864297374,0.048474876400813625,0.04902247178822419,0.04820334740917056
0.7259998321533203,[1]white.jpg,0.03833268294724023,0.051527789417241746,0.050774870905264724,0.051699674332103054,0.047199508213938264,0.04540705477083382,0.0490025116804256,0.04576604613853051,0.048019124331369914,0.03882207439208918,0.04991584866235836,0.04893465178425929,0.05166853835207681,0.04846812617398812,0.0490058644420939,0.04818609186245106
0.7259998321533203,[1]white.jpg,0.03830702314460553,0.05153337735335557,0.050786538515870394,0.05170845856767399,0.047211645211177496,0.0454088652621347,0.04901737559048838,0.04575625607445909,0.048008730770198196,0.03915750702112997,0.049946068220861936,0.04896547483986316,0.05170101543677037,0.04846584629605368,0.04903910148609894,0.04822149702566827
0.7259998321533203,[1]white.jpg,0.03836220960166569,0.051554030365232276,0.05080665508588017,0.051730720905151475,0.04723010775209758,0.0454358214659478,0.049037894491898354,0.04579049894696462,0.04805996096848976,0.03894974755641789,0.04994249194174909,0.048959730441538146,0.051696098052990205,0.048506593526195706,0.049030943099372754,0.048210410560418436
0.7259998321533203,[1]white.jpg,0.03832128355756802,0.051540798132514734,0.05079170176883957,0.05171518644275504,0.04721392508911194,0.045421337535540764,0.04902162242193489,0.045782273505005064,0.04801724678483567,0.038940918617358045,0.0499463364417954,0.04896610068870791,0.05170108249200374,0.048472931799046014,0.049038229768065184,0.04821997710704531
0.7259998321533203,[1]white.jpg,0.038345848124724406,0.05156630147293824,0.05082207778955433,0.051745160132069604,0.04724671509822787,0.04544520919861903,0.049053652471739345,0.04579152712720956,0.048064341910403,0.03913392593072962,0.049969649311262285,0.04898695486628471,0.05172363540215914,0.048510125101819644,0.04906000036716465,0.04823949017995479
0.7259998321533203,[1]white.jpg,0.03834781507823647,0.051561182923457974,0.05081213126327172,0.05173700174534342,0.0472339969556328,0.04544339870731815,0.04903905678261003,0.04580319473781523,0.04805991626500085,0.03879994616507842,0.04995299726164308,0.04897115218295481,0.05170570930310599,0.04850485009012819,0.04904191780590031,0.04822104999077916
0.7259998321533203,[1]white.jpg,0.03832389871166929,0.05156587678979359,0.05082243541746562,0.05174607655359227,0.047246983319161336,0.04544456099802983,0.04905570883222923,0.04579686919413438,0.0480502379596517,0.03911548574155399,0.04998382031724695,0.04900253403217006,0.05173899105059994,0.04850306195057177,0.04907694298946178,0.04825714805807448
0.7259998321533203,[1]white.jpg,0.038371910258759294,0.05158849675518236,0.05084398249912053,0.051769679995737075,0.04726877627000526,0.045471718367543025,0.049077211210395245,0.0458277146014827,0.048101691675387824,0.0389190362595363,0.04998006522417846,0.048997169613500785,0.05173217376854107,0.04854309392489122,0.04906815875389084,0.048246843903880586
0.7259998321533203,[1]white.jpg,0.03832743028729323,0.05157253760964127,0.0508271963390346,0.05175184330366174,0.0472502019703629,0.045456005091190944,0.049057027585152096,0.045816516377510594,0.048057122296943935,0.03888649211960937,0.049983462689335664,0.049002936363570254,0.05173608532382075,0.048509029866341334,0.049074976035949715,0.048255605787707066
0.7259998321533203,[1]white.jpg,0.0383466527875248,0.05160081256637723,0.05086052279001746,0.05178436509184421,0.04728614357544703,0.04548246955662603,0.04909332681814752,0.04582923452010566,0.04810334570447752,0.03908128757253737,0.05000775903555858,0.04902490812836982,0.051760828704932774,0.048548458343560495,0.04909846771937224,0.048277286979828714
0.7259998321533203,[1]white.jpg,0.03835577229926256,0.0515949787610744,0.050849726897445546,0.05177542439406209,0.047272710177029394,0.045481910763014645,0.049077926466217815,0.045842377345845384,0.048097400140452405,0.0387446926527849,0.04999019056441671,0.04900832313398398,0.05174180737040131,0.04854333979408023,0.049079356977862955,0.04825810918308606
0.7259998321533203,[1]white.jpg,0.03833196769141766,0.05159725863900884,0.0508571029731158,0.051780878219709184,0.047281941447489435,0.045480569658347327,0.049089303504145566,0.045829279223594574,0.04808168686410032,0.03905600774955842,0.05001600682926259,0.04903518993081926,0.05177057406551529,0.048534689668976026,0.049109353018921977,0.0482896474945125
0.7259998321533203,[1]white.jpg,0.03839464198287034,0.05161972214218642,0.05087782304022587,0.05180338642637568,0.04730216977622149,0.0455059388883041,0.04910843659739931,0.04585686127625242,0.048132827655414066,0.03885730074135074,0.05001285523329439,0.04903045136099474,0.051764248521834436,0.04857342524211707,0.049101507556618164,0.04827916452636296
0.7259998321533203,[1]white.jpg,0.03835630874112949,0.051602712464655934,0.05085938285105024,0.05178461096103322,0.04728229907540072,0.0454878339752953,0.04908852119308963,0.045846087735424965,0.04808848179441473,0.0388413192440652,0.05001533627692893,0.04903552520698609,0.05176889768468114,0.048541216378356976,0.0491083918939104,0.04828812757588954
0.7259998321533203,[1]white.jpg,0.03837868283732925,0.0516316356219811,0.05089295517122211,0.05181809387422727,0.04731911239851861,0.045515013696552954,0.049126832083086026,0.045862896247255355,0.04813633687929355,0.03905710298503673,0.050040750210374615,0.049059508628786636,0.051793976341959994,0.04858100248348742,0.04913313527502242,0.0483115522040787
0.7259998321533203,[1]white.jpg,0.03838536600892139,0.05162839461903508,0.050884506211818004,0.05181096366774603,0.04730824945071333,0.04551601952505344,0.04911270578059027,0.045876083776483986,0.04812647975998876,0.03871208145762461,0.05002163946886533,0.04904140371577784,0.05177318921961656,0.04857496751248449,0.04911290694629037,0.048290228639868336
0.7419998645782471,[1]white.jpg,0.038352419537594266,0.05162922163357993,0.05089013885142074,0.051814204670692046,0.04731600550603932,0.04551233148721832,0.04912222762372823,0.045860616369320914,0.04811684615812852,0.039030213836456995,0.050050406163979315,0.04907131034985904,0.05180448166185399,0.04856730086413632,0.04914571930715076,0.04832413623620704
0.7419998645782471,[1]white.jpg,0.03839473138984816,0.05165593196820402,0.050915508081377514,0.05184087030182723,0.04734054772145125,0.04554308748758882,0.04914549578970621,0.045892288791214084,0.04816881396398711,0.038848091822635156,0.05005016029479031,0.04906907517541351,0.05180204532170836,0.04861043973093507,0.049140980737326236,0.048316715457047875
0.7419998645782471,[1]white.jpg,0.03837106089246999,0.051640621023252134,0.050899124252691774,0.05182437471441921,0.04732250986367582,0.04552833533624832,0.04912875433310918,0.0458868796690559,0.048123551681465114,0.03883072451719338,0.050052976614591675,0.049074551352805064,0.05180626980141041,0.048579415509631095,0.04914744039147382,0.04832563380308554
0.7419998645782471,[1]white.jpg,0.038391333924690955,0.051668001910209885,0.050931690744363156,0.05185624830201248,0.04735735623328164,0.04555323517957153,0.04916480769691559,0.04589955310816206,0.048171742042510755,0.03905012924076667,0.05007827878931508,0.04909773011180522,0.05183141551392263,0.04861727936473839,0.04917166968246337,0.048348052602774215
0.7419998645782471,[1]white.jpg,0.03840566139288681,0.05166493972121951,0.05092306297100341,0.051849542778675886,0.04734606860233171,0.045554106897605286,0.049150703746164294,0.04591441701822484,0.048163069565662096,0.03871945753329486,0.05006234199551845,0.049082732091275706,0.05181308708346928,0.04861374778911445,0.049154123563065956,0.04833012650372106
0.7419998645782471,[1]white.jpg,0.038373474880871165,0.05167037119512215,0.05093242835193018,0.05185700826132396,0.04735731152979273,0.045554531580749937,0.04916438301377094,0.045905096340786974,0.04815370418473532,0.03904358017964127,0.05008976758596511,0.04911120821371177,0.05184361956639523,0.04860634936169975,0.049185751281470215,0.048363341195981645
0.7419998645782471,[1]white.jpg,0.03842030178550503,0.051691247724443404,0.05095238845972877,0.05187875650867897,0.0473767798992133,0.04557931966535087,0.04918329258958013,0.04593375127717868,0.04820146986263631,0.038838659386475016,0.05008520783009623,0.04910432387641953,0.051836444656425076,0.04864486141739624,0.049176989397643735,0.04835158417839815
0.7419998645782471,[1]white.jpg,0.03838603656125505,0.051675199171924494,0.05093403767753096,0.05185962341542523,0.047356708032692436,0.045561728842464545,0.04916268428119234,0.04592306714332904,0.04815786160920401,0.03841069053538925,0.05008699596965265,0.04910834719042149,0.05183943979018209,0.04861200435304694,0.04918248792677974,0.04835846851569039
0.7419998645782471,[1]white.jpg,0.03839674304684914,0.05170063545711463,0.05096300553834504,0.05188823364832802,0.047388760434241346,0.04558338768284174,0.04919502725541917,0.045932007841111164,0.048199793481802165,0.038602982592938255,0.05010715724315134,0.04912672032436375,0.05186022691252552,0.04864452614122941,0.0492019115927114,0.04837688635312156
0.7419998645782471,[1]white.jpg,0.038406287241731556,0.0516924994221329,0.05094961684341631,0.051877214238311556,0.047372913047422534,0.045580504307807,0.049179135165111444,0.04594512831510643,0.04819223859217627,0.03830440799050426,0.05008496196090722,0.04910566498108685,0.05183648935991399,0.04863715006555916,0.04917815168835541,0.04835288057957656
0.7419998645782471,[1]white.jpg,0.03836945156686921,0.05169030895117628,0.050951181465528184,0.0518765436859779,0.04737575171896836,0.045572167107125174,0.04918130328432361,0.04592655401546407,0.04817073621401027,0.038638700680577835,0.050105503214061646,0.049127368524952954,0.051858259959013456,0.048621257975251436,0.049202425682833874,0.04837914387931155
0.7419998645782471,[1]white.jpg,0.038405907262075815,0.05170577635833935,0.050965218361046116,0.05189259223849681,0.04738920746913045,0.045590115557922785,0.04919435670308551,0.04594579886744009,0.048217898394810964,0.03848724526014868,0.050096786033724076,0.04911634911493649,0.0518483357844753,0.048654651481467664,0.04918972989198326,0.04836284945760363
0.7419998645782471,[1]white.jpg,0.03836958567733594,0.05168559273309621,0.05094351481718001,0.051870888694630704,0.04736591695140802,0.04556946254604608,0.04917397191214227,0.045933103076589474,0.04817053504831017,0.038478304562366554,0.05009470732148973,0.04911668439110332,0.051847352307719266,0.04861955924267283,0.049190802775717114,0.04836669395764994
0.7419998645782471,[1]white.jpg,0.0383854107124103,0.051707340980451225,0.05097033691052638,0.05189704023564341,0.04739461659128864,0.045589109729422296,0.049203699732267826,0.04594150733250467,0.04820810833073954,0.03872631951884264,0.05011399687695466,0.04913382817910054,0.05186646304922855,0.048649935263387595,0.049209466482337295,0.04838399420785835
0.7419998645782471,[1]white.jpg,0.0383913115729465,0.05169768502684653,0.05095495891034113,0.051883696244203595,0.047376578733513204,0.04558356649679738,0.049183896086680425,0.0459487940011971,0.048201134586469484,0.03839327852645857,0.05009019226910976,0.04911071647533375,0.05184071383961604,0.048640413420249634,0.049183940790169335,0.04835699330055634
1.2049999237060547,[1]white.jpg,0.03835277716550555,0.05169417580296705,0.05095592003535271,0.051882601008725285,0.04737901507365883,0.04557536340658228,0.04918776293847119,0.0459306890881883,0.04817730762688013,0.038728666452010445,0.0501103758943529,0.04913262118489995,0.05186299852883798,0.0486255271584424,0.04920888533698146,0.04838428478053627
1.2049999237060547,[1]white.jpg,0.03840083341608446,0.05170906206477428,0.05097002398610401,0.051899074244388846,0.04739222495463192,0.045595971714970075,0.04920159866828903,0.045956237132100716,0.048223463979180335,0.038581927249661356,0.05010085405121494,0.04912128885046111,0.05185057095892083,0.04865992649315912,0.049195228421119265,0.04836823622801736
1.2049999237060547,[1]white.jpg,0.03835724751439661,0.05168753733486382,0.050946219378259106,0.0518744426219991,0.04736629693106376,0.04557281530771438,0.04917511185110949,0.04593893688189231,0.04817353018206718,0.03855161828417996,0.05009546728080121,0.04911853958589311,0.051845072429784825,0.04862038625721768,0.049193082653651556,0.048368482097206365
1.2049999237060547,[1]white.jpg,0.03836554001158953,0.05170812329150716,0.05097205799484944,0.05189934246532231,0.04739472835001091,0.045590786110256444,0.04920497378170178,0.04594325076857218,0.04820987411855151,0.038804863548858586,0.050115561499066534,0.04913700212681319,0.05186514429630569,0.048650650519210165,0.04921281924400559,0.04838678817591526
1.2049999237060547,[1]white.jpg,0.0383702562296696,0.05169956257338078,0.05095804345107596,0.05188754074424991,0.047378478631791905,0.04558694161021013,0.04918914874662742,0.04595254909426559,0.048203123891726006,0.03848261844904643,0.0500916227807549,0.04911382336781304,0.051839350383204266,0.04864300622260645,0.04918666770299288,0.048360524876180276
1.2049999237060547,[1]white.jpg,0.03833230296758449,0.05169522633495645,0.05095752936095349,0.051884836183170815,0.0473799314951815,0.0455779562089391,0.04919171919723978,0.04593375127717868,0.04817882754550309,0.03879598990630983,0.050113169862409816,0.04913628687099062,0.051862506790459964,0.04862595184158705,0.04921210398818302,0.04838770459743793
1.2049999237060547,[1]white.jpg,0.03837512890996086,0.051714717056121476,0.05097505312860645,0.0519043492560803,0.04739837168435713,0.0456009114504947,0.04920792421196988,0.04595836054782397,0.04822592267107042,0.038654615122630014,0.05010630787686204,0.04912765909763087,0.05185370020314457,0.048663748641460974,0.049200794005488636,0.04837469588216494
1.2249999046325684,[1]white.jpg,0.03833545456355269,0.05169484635530071,0.05095180731437293,0.05188114814533569,0.047374902352679056,0.04557947612756206,0.049184656045991905,0.04594613414360692,0.048179654560047934,0.038605553043550615,0.05010299981868265,0.049126697972619295,0.0518521355810327,0.04862543775146458,0.04920144220607784,0.04837585817287662
1.2249999046325684,[1]white.jpg,0.03834893266545924,0.05171659460265572,0.05097773533794109,0.05190685265145929,0.047404384303615606,0.04559746928184858,0.049215188528917854,0.04595145385878728,0.048211706961596844,0.03886865542753404,0.0501208812142469,0.049143551187938596,0.051869927569619126,0.04865453972274539,0.049219234194664264,0.04839273373994037
1.2249999046325684,[1]white.jpg,0.038360801441765006,0.051708391512440624,0.05096349727672306,0.05189514033736471,0.047387531088296304,0.04559505529344741,0.0491958095664751,0.04596504371941611,0.04820790716503944,0.03854012948752993,0.05009980351922554,0.04912356872839555,0.051846838217596794,0.048651365775032734,0.04919630130485312,0.04836984555361814
1.2259998321533203,[1]white.jpg,0.03833049247628361,0.05170675983509539,0.050964525456968,0.0518944474332866,0.04739063798077559,0.04558734394161033,0.049199318790354586,0.04594870459421928,0.04818157681007109,0.03885549025004986,0.05011933894387948,0.049144512312950174,0.05186789356087369,0.048634221987035514,0.04921988239525347,0.04839597474288639
1.2259998321533203,[1]white.jpg,0.03836701522672358,0.05172184726260272,0.050978517648997024,0.05191085361371679,0.047405010152460354,0.04560656644184189,0.049212461616094307,0.04597074341425221,0.048226660278637444,0.03870687350116652,0.050110465301330724,0.049133694068633806,0.05185656122643485,0.048668643673496687,0.04920667251428038,0.04838050733572332
1.2259998321533203,[1]white.jpg,0.03832369754596919,0.0517015518786373,0.0509556741661637,0.0518879430756501,0.047381473765548916,0.045584974656698064,0.04918738295881545,0.04595628183558963,0.048182359121127026,0.03865291639005141,0.05010820777514074,0.04913387288258945,0.051854303700244866,0.04863171859165652,0.04920763363929196,0.04838307778633568
1.2269999980926514,[1]white.jpg,0.038345289331113024,0.05172432830623726,0.05098274212869908,0.051914318134107365,0.047412006248474865,0.04560475595054101,0.049218273069652686,0.0459639484839378,0.048214791502331676,0.03891331421295574,0.050127363220138936,0.049151419001986864,0.051873548552220886,0.04866115583910416,0.04922710200871253,0.04840111564411111
1.2269999980926514,[1]white.jpg,0.03835534761611791,0.05171637108521117,0.05096861582620332,0.05190291874443516,0.04739636002735615,0.04560151494759499,0.04920121868863329,0.04597608548117703,0.04821206458950813,0.03857428295305764,0.05010438562683888,0.04912900020229819,0.051848447543197576,0.04865605964136835,0.049202425682833874,0.04837550054496533
1.2269999980926514,[1]white.jpg,0.03832611153437036,0.051711476053175456,0.05096678298315799,0.0518990965961333,0.04739649413782288,0.045590540241067436,0.04920162102003348,0.04595596891116725,0.04818653889734017,0.038884055779463744,0.05012423397591519,0.04914992143510836,0.051869927569619126,0.04863741828649262,0.049226945546501345,0.048401339161555666
1.2269999980926514,[1]white.jpg,0.03836187432549886,0.05172982683537326,0.050984038529877485,0.051918229689387044,0.04741370498105347,0.04561177439829998,0.049218854215008524,0.045978343007367015,0.04823240467696246,0.03874341860335095,0.0501156285542999,0.04913930435649209,0.0518594893049585,0.048672935208432105,0.049214987363217756,0.04838607292009269
1.2269999980926514,[1]white.jpg,0.038320814170934456,0.05170760920138469,0.05095869165166517,0.05189281575594136,0.04738674877724037,0.04558879680499992,0.049192233287362254,0.04596207093740355,0.04818575658628423,0.03868139251248747,0.05010934771410796,0.049135750429123694,0.05185372255488903,0.048634221987035514,0.049212282802138664,0.048385245905547845
1.2269999980926514,[1]white.jpg,0.03833878497347653,0.051728776303383864,0.050984709082211144,0.05191778265449794,0.04741437553338713,0.045607259345920005,0.0492208658720095,0.045966630693272434,0.0482203794384455,0.03894871937617295,0.050131565348096534,0.049156515199722674,0.05187576137492196,0.0486642850833279,0.04923436632566051,0.04840621184184692
1.2269999980926514,[1]white.jpg,0.03834182481072245,0.05172292014633657,0.050973846134405865,0.0519091995846271,0.047400428044847016,0.04560699112498654,0.04920600196194672,0.04598068994053482,0.04821687021456602,0.03861567838378887,0.05010796190595173,0.04913320233025579,0.05185052625543192,0.048659881789670206,0.049208706523025815,0.048379814431645206
1.2269999980926514,[1]white.jpg,0.038309861816151355,0.0517154546636885,0.05097004633784846,0.05190347753804654,0.04739790229772357,0.045594027113202464,0.049206605459047016,0.04596104275715861,0.048189310513652626,0.0389249371200725,0.05012577624628261,0.049152134257809434,0.051869927569619126,0.04863938524000469,0.04923079004654766,0.048403820205190205
1.2269999980926514,[1]white.jpg,0.038353425366094755,0.05173212906505216,0.0509855808002449,0.05192077778825495,0.04741388379500911,0.045613361372156304,0.04922169288655435,0.04598044407134581,0.048235936252586396,0.038794626449898055,0.05011862368805691,0.049142791228627115,0.051860651595670174,0.04867454453403289,0.04921941300861991,0.048389492736994354
1.2269999980926514,[1]white.jpg,0.03831833312729992,0.05171116312875308,0.050962267930778016,0.051897263753087966,0.0473889839516859,0.04559261895330178,0.04919648011880876,0.0459696481787739,0.04818969049330837,0.03873716011490346,0.05011258871705398,0.04913930435649209,0.05185504130781189,0.04863766415568163,0.049216373171373985,0.048388911591638516
1.2269999980926514,[1]white.jpg,0.03833462754900784,0.05173092207085157,0.05098681014618994,0.051920464863832574,0.047416722466554935,0.045608980430243064,0.04922473272380027,0.045973202106142294,0.04822180995009064,0.03899500983893989,0.05013395698475325,0.049158750374168204,0.0518759401888776,0.04866444154553909,0.04923754027337316,0.04840817879535899
1.2269999980926514,[1]white.jpg,0.03834439526133481,0.051724864748104185,0.050975321349539915,0.05191051833754996,0.047402529108825815,0.04560723699417555,0.0492082147846478,0.045982343969624515,0.04822107234252362,0.0386587725470987,0.05011044294958627,0.04913577278086815,0.0518500345170539,0.04866064174898169,0.04921145578759382,0.04838140140550153
1.2269999980926514,[1]white.jpg,0.038315293290053995,0.05172008147479075,0.050974270817550515,0.05190705381715939,0.047402529108825815,0.045597402226615215,0.04920895239221482,0.04596274148973721,0.04819606074047813,0.0389621974780795,0.05013187827251891,0.04915854920846811,0.05187325797954297,0.048643453257495556,0.0492370708867396,0.04840940814130403
1.2269999980926514,[1]white.jpg,0.038364623590066864,0.05173970630642251,0.050993470966037624,0.0519281538639252,0.047422623327091136,0.04562093861352665,0.049228711334313315,0.04598835658888299,0.0482437370114013,0.03883798883414136,0.050125843301515975,0.04915016730429737,0.051865591331194796,0.04868104889166938,0.04922734787790154,0.048396198260330946
1.2269999980926514,[1]white.jpg,0.038327005604148576,0.051716102864277705,0.05096711825932482,0.05190173410197903,0.047394951867455466,0.04559746928184858,0.0492010622264221,0.04597360443754249,0.04819485374627754,0.03876098707449282,0.05011600853395564,0.04914263476641593,0.05185694120609059,0.04864090515862765,0.049220798816776136,0.04839119146957296
1.2269999980926514,[1]white.jpg,0.03834374706074561,0.0517348112743868,0.05099078875670299,0.05192401879120097,0.047421863367779656,0.04561242259888918,0.0492290689622246,0.04597398441719823,0.04822791197632694,0.039017406286884104,0.05013829322317758,0.049163086612592534,0.05187862239821224,0.0486676378449962,0.049242859988553524,0.04841168801923847
1.2269999980926514,[1]white.jpg,0.038352374834105356,0.051729960945839995,0.050980797526931465,0.05191577099749696,0.04740916757692904,0.045612512005867,0.04921402623820618,0.04598721664991577,0.048226459112937346,0.03868063255317599,0.050113371028109914,0.04913872321113625,0.05185267202289963,0.048663748641460974,0.04921617200567389,0.048383725986924885
1.2269999980926514,[1]white.jpg,0.038323339918057905,0.05172209313179173,0.050977087137351884,0.051909646619516206,0.04740628420189431,0.04559970445629411,0.0492132662788947,0.045965580161283034,0.048200128757968995,0.03897907304514325,0.05013525338593166,0.04916194667362531,0.05187580607841087,0.04864642603950811,0.049242189436219864,0.04841184448144966
1.2269999980926514,[1]white.jpg,0.038368333979646445,0.05174292495762407,0.05099769544573968,0.051931707791293594,0.047426534882370815,0.04562447018915059,0.04923253348261517,0.04598956358308358,0.04824554750270218,0.03886139111058606,0.05012850315910616,0.04915300597584319,0.05186715595330667,0.04868359699053729,0.04923141589539241,0.04839874635919885
1.2269999980926514,[1]white.jpg,0.038339142601387814,0.05171990266083511,0.050972035643104985,0.051905265677602966,0.04739897518145742,0.045601112616194796,0.04920443733983485,0.04597349267882021,0.048198698246323855,0.03877169356008691,0.0501198306822575,0.049146792190884615,0.05185866229041365,0.04864347560924001,0.04922544797962284,0.048394387769030066
1.2269999980926514,[1]white.jpg,0.03835306773818347,0.051739393382000134,0.05099668961723919,0.05192895852672559,0.047426490178881904,0.04561785407279182,0.04923336049716002,0.04597711366142197,0.048230325964728114,0.03904673177560947,0.050142987089513195,0.04916845103126181,0.051882690415703106,0.048673225781110024,0.04924902907002319,0.048417007734418836
1.2269999980926514,[1]white.jpg,0.038377095863472925,0.0517346101086867,0.05098681014618994,0.05192068838127713,0.04741392849849802,0.04561801053500301,0.04921986004350901,0.04598974239703922,0.04823023655775029,0.03870515241684346,0.05011951775783512,0.04914511581005047,0.05185687415085723,0.048670454164797566,0.04922287752901048,0.04838993977188346
1.2269999980926514,[1]white.jpg,0.038349133831159336,0.05172741284697209,0.0509834797362661,0.05191487692771875,0.04741131334439675,0.045605784130785955,0.0492181166074415,0.045969201143884794,0.048201603973103045,0.03900198358320994,0.05013976843831163,0.049166461726005285,0.05187877886042343,0.048651030498865905,0.049247240930466764,0.048416247775107356
1.2269999980926514,[1]white.jpg,0.03839316676773629,0.05174802115535988,0.05100457978303191,0.051937563948340884,0.04743227928069583,0.04563008047700887,0.049238121418729,0.04599351984185217,0.04825035312776007,0.038886670933565015,0.050134940461509285,0.049159219760801766,0.051871782764408916,0.048688603781295275,0.04923836728791801,0.04840428959182377
1.2269999980926514,[1]white.jpg,0.0383631036714439,0.05172488709984864,0.05097849529725257,0.05191139005558372,0.04740487604199362,0.04560676760754199,0.04921033820037105,0.045979862925989975,0.048205627287105,0.0387937547318643,0.05012709499920547,0.049153698879921305,0.051864496095716486,0.048650985795376994,0.04923365106983794,0.048400534498755275
1.2269999980926514,[1]white.jpg,0.03838102977049706,0.05174359550995773,0.0510024340155642,0.05193387591050576,0.04743156402487326,0.045621072723993385,0.049237473218139795,0.04598046642309027,0.04823273995312929,0.03906843531947557,0.05014714451398188,0.0491722061243303,0.051884456203515075,0.048674835106710806,0.049254237026481275,0.048419868757709116
1.2269999980926514,[1]white.jpg,0.03839169155260224,0.051738342850010735,0.05099206280613694,0.05192549400633502,0.04741833179215572,0.045621542110626946,0.049222475197610284,0.04599499505698622,0.04823450574094126,0.03873251095205676,0.05012333990613698,0.049148893254863414,0.05185841642122464,0.048674321016588334,0.0492280184302352,0.04839271138819592
1.2269999980926514,[1]white.jpg,0.03836372952028865,0.05172946920746198,0.05098667603572321,0.05191735797135329,0.047413392056631094,0.04560772873255357,0.049218809511519614,0.04597125750437468,0.04820334740917056,0.039021921339264076,0.05014171304007924,0.04916876395568418,0.05187857769472333,0.04865201397562194,0.049250660747368426,0.048417588879774674
1.2269999980926514,[1]white.jpg,0.03841089170108935,0.05175079277167234,0.05100835722784486,0.05194076024779799,0.04743455915863027,0.04563343323867717,0.04924178710481967,0.04599711847270947,0.04825249889522778,0.03892149495142638,0.050138136760966394,0.049163265426548176,0.05187328033128742,0.048692269467385946,0.04924310585774253,0.04840762000174761
1.2269999980926514,[1]white.jpg,0.03838098506700815,0.051727055219060805,0.05098213863159878,0.05191411696840727,0.04740570305653847,0.045609829796532365,0.04921174636027174,0.04598203104520214,0.04820618608071638,0.03881863222344306,0.05012834669689497,0.04915606816483357,0.051863602025938274,0.048654316205300835,0.049236132113472476,0.048402300286567244
1.2269999980926514,[1]white.jpg,0.03839240680842481,0.05174645653324801,0.05100715023364427,0.051938256852419,0.047433441571407504,0.04562605716300692,0.04924091538678591,0.045985383806870436,0.048234461037452346,0.03910721559610553,0.050151704269850765,0.04917781641218858,0.0518870937093608,0.04868116065039166,0.04925998142480629,0.0484252778798673
1.2269999980926514,[1]white.jpg,0.038409617651655396,0.05174328258553536,0.0509988353847069,0.05193181955001587,0.04742293625151351,0.045628024116518985,0.04922848781686876,0.04599930894366609,0.04823897608983232,0.038765770347806254,0.050129084304461995,0.04915533055726654,0.051863020880582436,0.04868187590621423,0.0492349698227608,0.048398679303965485
1.242999792098999,[1]white.jpg,0.03837358663959344,0.05173297843134146,0.0509916828264812,0.051922275355133454,0.047417348315399684,0.04561262376458928,0.049224665668566904,0.04597675603351069,0.048204129720226495,0.03911523987236498,0.05014392586278032,0.04917166968246337,0.05187991879939065,0.04865605964136835,0.04925448289567028,0.04842006992340921
1.242999792098999,[1]white.jpg,0.0384224699047172,0.0517537655536849,0.05101287228022483,0.05194458239609985,0.047438627176121136,0.04563620485498963,0.04924444696240985,0.045999107777965995,0.04825895854937536,0.0393945472710785,0.05014506580174754,0.04917006035686259,0.051878555342978874,0.048697745644777496,0.049251286596213174,0.04841381143496173
1.242999792098999,[1]white.jpg,0.03840313564576336,0.05173718055929906,0.05099291217242624,0.051924555233067896,0.04741647659736593,0.04561932928792587,0.04922120114817633,0.0459896529900614,0.04822033473495659,0.03927722296443259,0.05014249535113518,0.049169792135929126,0.05187652133423344,0.04866692258917363,0.04925159952063555,0.048415018429162314
1.242999792098999,[1]white.jpg,0.03842059235818295,0.05176351091426741,0.05102487516699733,0.05195549004739404,0.0474515464844163,0.04564210571552583,0.04925821563699432,0.045998683094821344,0.0482542870347842,0.039543409889150845,0.05017153026718262,0.049197329485098064,0.05190557860202534,0.048698662066300163,0.049280902657616456,0.04844367336555402
1.242999792098999,[1]white.jpg,0.0384443746142834,0.05176554492301284,0.051021857681495864,0.05195464068110474,0.04744537740294664,0.04564952649468499,0.04924940904967893,0.04602002901077616,0.04826425591281127,0.03918562551565474,0.05015472175535223,0.049180699787223316,0.05188718311633862,0.04870585932801477,0.04926141193645143,0.04842331092635523
1.242999792098999,[1]white.jpg,0.038407382477209866,0.051762303920066824,0.05102183532975141,0.05195242785840366,0.047446584397147225,0.04564163632889227,0.04925325354972524,0.04600626033619169,0.048237702040398366,0.039445777469370065,0.05017743112771882,0.049205085540424055,0.0519119488491951,0.04868719562139459,0.04928863636119799,0.04845261406333614
1.242999792098999,[1]white.jpg,0.038456578666755996,0.05178921542039101,0.051048791533564515,0.051980613408161805,0.04747347354572696,0.04567105122459546,0.04927974036690478,0.046033775333616175,0.048293804918981185,0.03934325001755357,0.05018105211032058,0.04920658310730256,0.051913938154451625,0.0487333519736948,0.049288524602475715,0.04845024477842388
1.242999792098999,[1]white.jpg,0.038426716736163706,0.05177417269637259,0.0510303960478778,0.05196244143991964,0.047453245216994906,0.045657103736055346,0.04925935557596154,0.046029774371358675,0.048255091697584594,0.039210234786300036,0.05017740877597437,0.049205331409613064,0.051911323000350354,0.0487032441739135,0.049287675236186414,0.04845066946156853
1.242999792098999,[1]white.jpg,0.038438719622936206,0.05179820082166205,0.05105967683311425,0.05199022465827759,0.04748547643249946,0.04567726500955403,0.0492926820269444,0.046036345784228536,0.048289468680556856,0.03949128562108107,0.05020729305831111,0.04923374047681576,0.05194167666932066,0.04873520716848459,0.04931818536736791,0.048480218467738444
1.242999792098999,[1]white.jpg,0.03845903735864608,0.05180083832750777,0.05105802280402456,0.05199073874840006,0.047481497821986414,0.04568555750674695,0.049287094090830576,0.04605684233389405,0.04830006340742867,0.03913667519529762,0.05019005986333607,0.04921623906090725,0.0519218506719888,0.048741040973787425,0.049298046445613676,0.048458403165150064
1.242999792098999,[1]white.jpg,0.03842841546874231,0.0517986255048067,0.05105916274299178,0.051989419995477196,0.04748353183073185,0.04567804732060997,0.04928984335539858,0.04604150903719771,0.04827529767457219,0.03939765416355779,0.05021511616887047,0.04924279293332016,0.05194791280602369,0.048725372400924255,0.049327438989572404,0.04848998618006541
1.242999792098999,[1]white.jpg,0.03847852807981111,0.0518255817086198,0.05108654362994953,0.05201825374582455,0.047510979772922964,0.04570819982388018,0.049317246594100785,0.0460715721334901,0.04833012650372106,0.03930706254328043,0.05021853598577213,0.04924379876182065,0.05194909744847982,0.04877063468344625,0.049327014306427754,0.048486544011419296
1.242999792098999,[1]white.jpg,0.03845479052719957,0.05181004724622336,0.051067410536695786,0.051998852431637335,0.047489678560457056,0.045693201803350667,0.049294716035689835,0.04606493366538687,0.048290765081735264,0.039171901544559184,0.05021343978803632,0.0492412730146972,0.051943464808877085,0.048739185778997635,0.0493240415244152,0.048485784052107815
1.242999792098999,[1]white.jpg,0.03846855920178404,0.05183246604591203,0.051095461975987196,0.05202551806277252,0.047520211043383005,0.045711977268693124,0.04932661197502756,0.046070074566611594,0.04832393507050694,0.039465871687635386,0.050242854683739506,0.04926945856445534,0.051973282035980464,0.04876877948865646,0.04935423873117432,0.04851533305827773
1.242999792098999,[1]white.jpg,0.03848912280668292,0.05183642230468062,0.05109497023760918,0.052027373257562314,0.0475178641102152,0.04572100737345307,0.04932321450987035,0.04609204633141116,0.04833736846892458,0.039117363288088236,0.05022694024168733,0.04925298532879178,0.05195450657063801,0.04877749666899403,0.04933550796932077,0.04849474710163439
1.690999984741211,[1]white.jpg,0.038452868277176415,0.05183356128139034,0.051095327865520464,0.05202551806277252,0.04751931697360479,0.04571271487626015,0.049324533262793215,0.04607713771785947,0.048311574555823154,0.03937425188711308,0.050250901311743416,0.049278198096537364,0.05197992050408369,0.04875939175598523,0.0493638499812901,0.04852485490141569
1.690999984741211,[1]white.jpg,0.038501438617877796,0.05186091981660364,0.05112340165655633,0.05205511177243135,0.04754765898557412,0.045743068545230456,0.04935441754512996,0.04610661966879602,0.04836812446929508,0.03929378560707397,0.05025572928854576,0.04928074619540527,0.05198325091400753,0.04880650923329702,0.04936476640281277,0.04852353614849283
1.690999984741211,[1]white.jpg,0.0384719790186857,0.051846078258285314,0.05110500617086961,0.052036604528022355,0.047526737752763955,0.04572943398111272,0.04933235637335257,0.046101501119315755,0.04833077470431026,0.03915925045719748,0.05025177302977717,0.049279338035504584,0.051979138193027755,0.04877796605562759,0.04936297826325634,0.04852389377640411
1.690999984741211,[1]white.jpg,0.038481009123445646,0.05187010638357477,0.051134756342739625,0.0520647900777805,0.04755838782291267,0.04575004228950051,0.04936633102492464,0.046109257174641746,0.04836284945760363,0.03945170068165072,0.05028188082955847,0.04930788121317401,0.05200991654514272,0.048807000971675035,0.049393533097926746,0.04855335337559621
1.690999984741211,[1]white.jpg,0.03850141626613334,0.05187372736617653,0.051133281127605575,0.0520654382783697,0.04755461037809972,0.04575777599308205,0.0493606983853219,0.046130223110940824,0.048375433489731966,0.039107126189127706,0.05026402178573868,0.049289999817609766,0.05199031406525541,0.048814913489212214,0.0493727012720944,0.0485310016311409
1.690999984741211,[1]white.jpg,0.03847079437622957,0.05186932407251883,0.051131895319449346,0.052062420792868234,0.047554073936232795,0.04574876824006656,0.049361257178933284,0.046116029753211704,0.04834890196906352,0.03936636172132036,0.05028840753893942,0.049315905489433466,0.05201680088243495,0.04879645094829213,0.04940128915325274,0.04856162352104467
1.690999984741211,[1]white.jpg,0.03852405858326657,0.05189871661647756,0.051161801953530546,0.05209369088336121,0.047584226439503004,0.04577977010962607,0.04939123086824785,0.04614365650935847,0.04840556364125772,0.039297540700142464,0.05029379430935315,0.049319057085401664,0.05202086889992582,0.04884247319012561,0.049402831423620154,0.048560707099522
1.690999984741211,[1]white.jpg,0.03850266796382284,0.051881595180224796,0.051141998307943144,0.052074133106962815,0.047561651177603144,0.045764839144329925,0.04936883442030363,0.046138783829067206,0.048368057414061714,0.039159608085108766,0.05028809461451705,0.049315771378966734,0.052015504481256546,0.048813482977567074,0.0493994563102074,0.04855914247741013
1.690999984741211,[1]white.jpg,0.03851129573718259,0.05190443866305812,0.051170049747234554,0.05210077638635354,0.047592273067506914,0.045783368740483374,0.049400730359641355,0.0461427400878358,0.04839894752489895,0.03945145481246171,0.05031728599277568,0.04934373341128032,0.0520454334670822,0.04884099797499156,0.04942980997917771,0.048588736187068965
1.690999984741211,[1]white.jpg,0.03853375924036017,0.05190949015730502,0.05117031796816802,0.052103570354410454,0.047589881430850196,0.04579425404003311,0.0493977575776288,0.0461660976607916,0.04841414671112856,0.03911106009615184,0.05030099157106776,0.04932728252736122,0.0520266803534842,0.04885183857105238,0.04941067688592397,0.04856839609961463
1.690999984741211,[1]white.jpg,0.038500253975421665,0.05190428220084693,0.05116801573848912,0.05209887648807484,0.04758800388431595,0.04578356990618347,0.04939695291482841,0.04614888681756101,0.048385670588692496,0.039363858325941366,0.05032265041144495,0.04935050598985028,0.05204945678108416,0.04883080557951994,0.04943658255774767,0.04859586639355021
1.690999984741211,[1]white.jpg,0.03855262411268045,0.05193135016338231,0.0511961342330139,0.05212797845935565,0.04761627884105192,0.04581242600827527,0.04942513846458655,0.046174345454495606,0.04844347219985392,0.03930370978161213,0.050328350106281054,0.04935392580675194,0.052053368336363835,0.04887707369054242,0.04943843775253746,0.04859472645458299
1.690999984741211,[1]white.jpg,0.03852662903387893,0.05191702269518646,0.0511780293200051,0.05211011941553586,0.04759575993964194,0.04579964081044684,0.049403636086420545,0.046171730300394336,0.048408111740125624,0.03915773053857452,0.05032463971670147,0.04935247294336235,0.05204956853980643,0.048850251597196054,0.049436694316469944,0.04859506173074982
1.690999984741211,[1]white.jpg,0.038534876827582935,0.05194178842804294,0.05120822652676422,0.052139333145538945,0.04762810291386878,0.04582159022350195,0.04943913065661557,0.04618091686736547,0.04843752663582881,0.039468017455103095,0.050354680461249406,0.049381440804176426,0.05207976574656555,0.04887821362950964,0.04946729385462926,0.048625549510186855
1.690999984741211,[1]white.jpg,0.03856965614195539,0.05194469415482213,0.05120634898022997,0.052139422552516766,0.047622872605666236,0.045829748610228135,0.04943195574664542,0.046200452292019405,0.04845096003424645,0.0391188832067112,0.05033594969939586,0.049362441821389415,0.05205821866491064,0.04888646142321365,0.04944527738634078,0.04860201312327542
1.690999984741211,[1]white.jpg,0.03852385741756647,0.051939374439641764,0.051203532660428604,0.05213439341001432,0.04762117387308763,0.04581933269731196,0.04943144165652295,0.04618333085576664,0.04842594843220096,0.03936021499159515,0.05036089424620798,0.0493889062868245,0.052085711310590664,0.04886860237939386,0.04947513931693307,0.048633082048068293
1.690999984741211,[1]white.jpg,0.03856813622333243,0.05196834230045584,0.0512336404602099,0.05216584231446294,0.047651974576947045,0.04585044632559375,0.049463315244116214,0.046211404646802505,0.04848055374390527,0.03931130937472694,0.050364738746254294,0.04939064972289201,0.05208801354026956,0.04891308235085992,0.04947563105531109,0.0486312268532785
1.690999984741211,[1]white.jpg,0.03854815376378939,0.05195325487294851,0.0512155355472011,0.05214831854680998,0.047631209806348065,0.04583768347950977,0.04944208108688367,0.046210264707835284,0.048446109705699646,0.0391595410298754,0.05036147539156382,0.04938962154264707,0.05208501840651255,0.04888641671972474,0.04947466993029951,0.04863124920502296
1.690999984741211,[1]white.jpg,0.03855519456329281,0.05197607600403738,0.05124389991091489,0.05217487241922288,0.04766227873114094,0.04585545311635174,0.049473686453543476,0.046212879861936555,0.04847514462174709,0.039460730786410665,0.05039066676982245,0.04941733770577165,0.052114478005704644,0.04891062365896984,0.049504978895780906,0.04866003825188139
1.690999984741211,[1]white.jpg,0.038575691112958325,0.05198114985002873,0.05124427989057063,0.05217777814600207,0.047660021204950956,0.04586826066592463,0.049470356043619636,0.04623746678083739,0.048491595505666195,0.03913023789289449,0.05037457351381463,0.04940180324337521,0.05209614957525129,0.048924638202743315,0.04948620343043845,0.04864052517897191
1.690999984741211,[1]white.jpg,0.03854218584801982,0.05197562896914827,0.051241575329491536,0.05217292781745527,0.047657070774682855,0.04585978935477607,0.0494685232005743,0.04622376516148629,0.04846309703148568,0.03937899045693761,0.05039518182220242,0.049424400857019525,0.052118098988306404,0.04890351580423305,0.04951087975631711,0.04866839780430768
1.690999984741211,[1]white.jpg,0.038592030238155155,0.052003367484017314,0.051270632597283435,0.0522029685620032,0.04768639626340822,0.04589000891327964,0.04949791574453303,0.046249603778076624,0.048520742180435915,0.03933249882847057,0.05040195440077238,0.04942860298497712,0.05212274815115311,0.04894958274955544,0.04951387489007412,0.04866862132175223
1.690999984741211,[1]white.jpg,0.038566169269820365,0.051989419995477196,0.05125288531218592,0.05218551184958361,0.04766652556258745,0.04587753663987358,0.049476793346022764,0.04624777093503129,0.04848571699687445,0.03917684128008381,0.05039779697630369,0.04942672543844288,0.05211825545051759,0.04892345356028718,0.0495116844191175,0.048667749603718474
1.690999984741211,[1]white.jpg,0.03856860560996599,0.05201094472538766,0.05127984151599902,0.05221132811442949,0.047696365141435285,0.04589584271858248,0.049508264602215836,0.04625389531301204,0.048513366104765664,0.03948833519081297,0.05042546843593936,0.04945314520038905,0.05214764799447632,0.04894685583673189,0.04954076403865385,0.04869586809824325
1.690999984741211,[1]white.jpg,0.03859529359284563,0.05201505744636744,0.05127970740553229,0.052213585640619474,0.047694219373967575,0.045905431616953804,0.0495055823928812,0.046276224705722895,0.04852867704971755,0.03914548178261301,0.05040957634563164,0.049436783723447765,0.0521286043082004,0.048958970482226666,0.04952145213144447,0.04867490216194417
1.690999984741211,[1]white.jpg,0.03856152010697366,0.05201018476607618,0.05127747223108676,0.05220911529172841,0.04769254299313343,0.04589535098020446,0.0495043306951917,0.04626118198170447,0.04850257021219375,0.039381203279638684,0.05043275510463179,0.049461549456304245,0.05215370531722371,0.04893956916803946,0.04954910123933568,0.048704607630325275
1.690999984741211,[1]white.jpg,0.03860678238949566,0.052038794998978975,0.051307356513423504,0.0522402289200102,0.04772343310397066,0.045926330498019516,0.04953477377113983,0.046288026426795296,0.048558650739032115,0.03934179715416398,0.05043863361342354,0.049464879866228086,0.05215730394808101,0.04898471969183918,0.049551090544592204,0.04870382531926934
1.690999984741211,[1]white.jpg,0.038579602668238004,0.052023171129604716,0.05128837988238095,0.05222136404768992,0.04770204248452693,0.04591215949203485,0.0495123326197067,0.04628268435987048,0.048521457436258485,0.03917722125973955,0.05043248688369833,0.04946101301443732,0.05215084429393343,0.048956310624636484,0.04954673195442342,0.04870067372330114
1.690999984741211,[1]white.jpg,0.038580072054871566,0.052044695859515176,0.05131598428678325,0.05224756029219154,0.04773239615349724,0.045930532625977114,0.049545033221844816,0.046286551211661246,0.048552548712795816,0.03950208151365298,0.05046386873291358,0.04949125492468535,0.05218363430304936,0.04898342329066077,0.049579209039116987,0.04873306140101688
1.690999984741211,[1]white.jpg,0.038614739610521746,0.05205162490029632,0.05131819710948433,0.05225252237946062,0.047732373801752784,0.045944010727883663,0.0495432897857773,0.04631238982825158,0.04856763614030315,0.03916653712588991,0.05044790958737249,0.04947491579948852,0.05216474707898463,0.04899694609605623,0.04956009829760769,0.048712363685651267
1.690999984741211,[1]white.jpg,0.03858977271196517,0.052045612281037844,0.05131403968501564,0.05224659916717996,0.04772857400519538,0.04593341600101185,0.049540317003764746,0.046294508432687335,0.04853958470101174,0.03940111868394836,0.05046849554401583,0.0494975804683662,0.052187009416462114,0.048974974331256665,0.04958470756825299,0.04874016925575367
1.690999984741211,[1]white.jpg,0.038639035956744665,0.05207460249359638,0.05134423689177476,0.05227775749895066,0.04775872650846559,0.045963814373471065,0.04957051421052387,0.04632039175276658,0.04859700633251743,0.03936879806146599,0.05047607278538618,0.04950292253529102,0.05219188209675337,0.04902162242193489,0.04958832855085475,0.048741331546465344
1.690999984741211,[1]white.jpg,0.038621467485602794,0.05206221962716814,0.051328300097978126,0.052262066574343034,0.04773905697334492,0.0459529961291547,0.04954963768120261,0.046322559871978745,0.04856207055593378,0.03920196464085157,0.05047289883767352,0.049501983762023895,0.052187679968795773,0.04899833190421246,0.04958660746653169,0.04874159976739881
1.690999984741211,[1]white.jpg,0.038630989328740754,0.052084370205923346,0.05135561392970251,0.05228790519093337,0.047769321235337406,0.045969849344474,0.049581220696117964,0.046326180854580505,0.048591731320825976,0.03951728069988259,0.05050300663745482,0.04953077280888233,0.052219866480811415,0.04902133184925697,0.04961848105412496,0.048771707567180106
1.690999984741211,[1]white.jpg,0.03865483864007457,0.052091276894960035,0.0513583184907816,0.05229280022296908,0.04777043882256017,0.0459814498998463,0.049582271228107364,0.046348420840313535,0.04860686345182222,0.03918506672204336,0.050487941561691944,0.049514701904618964,0.05220185097478044,0.04903561461396391,0.049600309085882796,0.04875067457564766
1.690999984741211,[1]white.jpg,0.038614560796566104,0.05208320791521167,0.0513528199616456,0.052285535906021106,0.0477659237701802,0.0459696481787739,0.04957815850712759,0.04633250639826136,0.04857729209390784,0.03941493206202174,0.050505800605511735,0.049534416143228545,0.05222245928316823,0.04901149708169664,0.04962281729254929,0.048775619122459785
1.690999984741211,[1]white.jpg,0.03865244700341785,0.052109851194602395,0.051380737290470276,0.0523149955052132,0.04779574099728358,0.045999398350643914,0.04960786397550869,0.04635765211077358,0.048635071353324816,0.03938232086686145,0.05051400369572683,0.04953991467236455,0.05222920950999373,0.049057027585152096,0.04962780173156282,0.0487769602271271
1.690999984741211,[1]white.jpg,0.038620081677446565,0.052097043645029505,0.05136370526119533,0.05229847756606073,0.04777633968309637,0.04598842364411636,0.049587546239798816,0.04635792033170704,0.0485983697889292,0.0388661743838995,0.050507029951456776,0.0495352878612623,0.05222143110292329,0.049030227843550184,0.049622549071615826,0.04877360746545881
1.690999984741211,[1]white.jpg,0.03861871822103479,0.05211396391558217,0.05138639228181747,0.052319689371548815,0.04780092660199721,0.04600156646985608,0.0496140107052339,0.04635740624158457,0.048620073332795305,0.039085512052239424,0.050531236890701874,0.049558801896429285,0.05224684503636897,0.04904752809375859,0.04964818652250606,0.04879913315762677
1.690999984741211,[1]white.jpg,0.03864580853531462,0.0521147015231492,0.0513827265957268,0.052318504729092684,0.047794779872272,0.046007869661792475,0.04960614289118563,0.04637548880284891,0.04863411022831324,0.038783964667792874,0.05050930982939122,0.04953636074499616,0.0522223251727015,0.04905711699212992,0.049622884347782656,0.04877215460206921
1.690999984741211,[1]white.jpg,0.0385977075812468,0.05210088814507582,0.05137108133686558,0.052305026627186134,0.04778331342736643,0.04598949652785021,0.049595548164313816,0.046351237160114904,0.048595262896449914,0.03903003502250135,0.050522564413853215,0.04955167168994804,0.052236965565319725,0.04902756798596,0.04964054222590235,0.04879240528254572
1.690999984741211,[1]white.jpg,0.03864415450622493,0.0521244021802428,0.05139647291856681,0.05233155814785458,0.047809420264890226,0.046014731647340254,0.04962194557451553,0.04637329833189229,0.04864908589709829,0.03903242665915807,0.05052714652146655,0.04955363864346011,0.05223964777465436,0.04907001394868063,0.0496411680747471,0.0487904159772892
1.690999984741211,[1]white.jpg,0.03861849470359024,0.052104665589888764,0.05137284712467755,0.052308312333621064,0.047783134613410785,0.04599644792037581,0.04959501172244689,0.04636759863705619,0.048610216213490515,0.03885801599717331,0.05051382488177119,0.049542552178210277,0.052226147321003356,0.0490374698087537,0.04962956751937479,0.04877979889867293
1.690999984741211,[1]white.jpg,0.038620752229780224,0.052118903651106795,0.05139204727316466,0.052325970211740756,0.04780526284042154,0.04600646150189179,0.04961848105412496,0.0463638435439877,0.048626220062520514,0.03919501324832597,0.05053691423379352,0.049564926274410046,0.05225051072245964,0.049052266663583116,0.04965424384525345,0.04880418465187367
1.690999984741211,[1]white.jpg,0.038648557799882625,0.05211874718889561,0.05138710753764004,0.05232342211287285,0.04779840085487376,0.04601160240311651,0.04960951800459838,0.04637915448893958,0.04863985462663825,0.03887851254683883,0.05051252848059278,0.049540272300275835,0.052223956850046736,0.04906004507065356,0.04962681825480679,0.04877492621838167
1.7059998512268066,[1]white.jpg,0.03860499424993923,0.05210430796197748,0.05137528346482318,0.05230989930747739,0.04778695676171264,0.04599336337964098,0.049599549126571316,0.04635798738694041,0.048601163756986115,0.03911012132288472,0.050527705315077935,0.04955721492257296,0.05224069830664376,0.0490319712796177,0.04964657719690528,0.04879662976224777
1.7059998512268066,[1]white.jpg,0.03864714963998194,0.052129386619256333,0.05140201615119173,0.05233770487757979,0.04781505290449296,0.046019961955542796,0.04962710882748471,0.046379288599406314,0.04865529968205687,0.039115932776443096,0.05053239918141355,0.04955938304178512,0.05224378284737859,0.04907457370454952,0.04964778419110587,0.048794998084902536
1.7059998512268066,[1]white.jpg,0.038624127343192975,0.05210716898526776,0.051375551685756644,0.05231213448192292,0.04778706852043492,0.046000158309955394,0.04959858800155974,0.04637092904698003,0.04861334545771426,0.03893322961726542,0.05051474130329386,0.049543848579388684,0.05222621437623672,0.04903921324482122,0.04963169093509805,0.04878035769228431
1.7059998512268066,[1]white.jpg,0.03862032754663557,0.052118993058084616,0.05139256136328713,0.05232744542687481,0.04780693922125569,0.04600804847574812,0.049619129254714164,0.0463638435439877,0.04862890227185515,0.039264191897415146,0.050538747076838864,0.04956693793141102,0.052250734239904194,0.049053227788594694,0.049657037813310365,0.04880559281177435
1.7059998512268066,[1]white.jpg,0.03864511563123651,0.052122524633708554,0.05139204727316466,0.05232885358677549,0.047803944087498676,0.046016206862474304,0.049614077760467265,0.04638197080874095,0.04864928706279839,0.038955961341376466,0.05051968103881848,0.04954733545152371,0.052230103579771946,0.04906762231202391,0.04963439549617714,0.048781475279507075
1.7059998512268066,[1]white.jpg,0.038615276052388674,0.052109180642268736,0.051381072566637105,0.05231658247906953,0.04779296938097112,0.04599964421983292,0.04960663462956365,0.04636610107017768,0.04860934449545676,0.039182183347008626,0.05053344971340295,0.04956300402438689,0.052246018021824124,0.049038319175043005,0.049652366298719205,0.04880226240185051
1.7059998512268066,[1]white.jpg,0.03866798146581429,0.05213311936058037,0.051406262982638236,0.0523421528747264,0.04781905386675046,0.04602364999337792,0.0496321156182427,0.04638355778259728,0.048661312301315346,0.03917773534986202,0.050536713068093424,0.04956356281799827,0.05224805203056956,0.049076920637717326,0.04965247805744148,0.0487984179018042
1.7059998512268066,[1]white.jpg,0.03864147229689029,0.05211217577602575,0.0513814748980373,0.052317968287225756,0.04779196355247063,0.04600360047860151,0.04960477943477386,0.0463752429336599,0.048619782760117386,0.03899699914419641,0.05051921165218492,0.04954829657653529,0.0522303270972165,0.04904359418673446,0.04963613893224465,0.04878417984058617
1.7059998512268066,[1]white.jpg,0.038637270168932696,0.052122524633708554,0.05139752345055621,0.052332787493799625,0.047810426093390715,0.04601126712694968,0.049624940708272544,0.046371241971402404,0.04863484783588026,0.03933620921805015,0.050544938510052984,0.049573174068114054,0.052257439763240786,0.049059128649130895,0.04966338570873567,0.04881149367231055
1.7059998512268066,[1]white.jpg,0.03865888430582098,0.05212601150584358,0.051396785842989186,0.05233470974382278,0.04780897323000112,0.04601985019682052,0.04962324197569394,0.046390330361167235,0.048653980929134005,0.03901543933337204,0.05052455371910974,0.04955216342832606,0.05223535623971894,0.04907115388764785,0.04963978226659087,0.04878545389002012
1.7059998512268066,[1]white.jpg,0.038612459732587305,0.05211327101150406,0.051385498212039256,0.052321410455871874,0.04779849026185158,0.04600261700184548,0.04961329544941133,0.04636768804403401,0.04861166907688011,0.039231245426088024,0.05053586370180412,0.049566312082566275,0.05224932608000351,0.04903939205877686,0.0496561213917877,0.04880425170710703
1.7059998512268066,[1]white.jpg,0.038651508230150726,0.05213484044490343,0.05140827463963921,0.052345170360227865,0.047822853663307865,0.04602590751956791,0.04963763649912316,0.046384898887264596,0.048660887618170695,0.03925335130135432,0.0505393282221947,0.04956818962910052,0.052251963585849236,0.04908051926857463,0.04965638961272116,0.04880302236116199
1.7059998512268066,[1]white.jpg,0.038602893185960434,0.052117942526095216,0.05138590054343945,0.05232380209252859,0.047798467910107126,0.046010820092060575,0.04961132849589926,0.04638201551222986,0.04862280024561885,0.039056365377469704,0.05052540308539904,0.04955672318419494,0.05223837372522041,0.049050836151937977,0.04964405144978183,0.04879182413718988
1.7059998512268066,[1]white.jpg,0.03858418477585134,0.052130995944857116,0.051403312552370135,0.05233991770028087,0.047819277384195016,0.04601855379564211,0.04963175799033141,0.046374617084815155,0.04863191975735662,0.039399822282769954,0.05054918534149949,0.049579879591450646,0.05226365354819936,0.04906290609394384,0.04966966654892761,0.04881746158808012
1.7059998512268066,[1]white.jpg,0.03860747529357377,0.05213256056696899,0.051401166784902426,0.052340878825292446,0.04781614813997127,0.046026779237601664,0.04962762291760718,0.04639444308214701,0.04864962233896522,0.039090407084275136,0.05052830881217823,0.049558444268518,0.0522414806176997,0.04907689828597287,0.049645504313171426,0.04879164532323424
1.8229999542236328,[1]white.jpg,0.03856619162156482,0.05211832250575096,0.051388023959162706,0.05232643959837432,0.04780515108169926,0.046007780254814654,0.049615172995945575,0.046371711358035965,0.04860900921928993,0.03929228804019547,0.050541786914084785,0.049574314007081274,0.052256925673118314,0.049046455210024736,0.04966358687443577,0.0488119183554552
1.8229999542236328,[1]white.jpg,0.03861004574418613,0.052145189302586235,0.05141614245368748,0.05235587684582196,0.0478354376954362,0.0460355634731726,0.04964400674629292,0.046393280791435336,0.048659747679203474,0.03931396923231712,0.05054703957403178,0.04957786793444967,0.0522619324638763,0.04908852119308963,0.049665799697136845,0.04881198541068857
1.8229999542236328,[1]white.jpg,0.03858787281368647,0.05212391044186478,0.05139057205803061,0.05233115581645439,0.04780801210498954,0.04601649743515222,0.04961535180990122,0.04638874338731091,0.04862090034734015,0.039106656802494144,0.05052991813777901,0.04956313813485362,0.052245302766001554,0.04905566412874032,0.0496500193655514,0.04879745677679262
1.8229999542236328,[1]white.jpg,0.03858653170901915,0.05213682975015995,0.05140876637801723,0.05234753964514013,0.0478297380006001,0.0460248122840896,0.049637412981678605,0.04638382600353074,0.04863491489111363,0.03944667153914828,0.05055682963810321,0.04958951319331088,0.05227355537099306,0.04907088566671439,0.04967876370892092,0.04882649169284006
1.8229999542236328,[1]white.jpg,0.038620171084424386,0.052140383677528344,0.05140787230823902,0.052348880749807446,0.04782770399185467,0.04603252363592668,0.049633277908954374,0.04640213208223964,0.048652885693655695,0.03912335355560226,0.05053378498956978,0.04956528390232133,0.05224811908580292,0.04908165920754185,0.04965205337429683,0.048797099148881334
1.8239998817443848,[1]white.jpg,0.03856963379021094,0.052124670401176264,0.051394125985399004,0.05233327923217764,0.04781436000041485,0.04601309996999502,0.0496199115657701,0.04637948976510641,0.048611646725135654,0.03932165823240975,0.05054585493157565,0.04957932079783926,0.05226153013247611,0.04905018795134877,0.04966830309251584,0.04881551698631251
1.8239998817443848,[1]white.jpg,0.038609218729641286,0.05214764799447632,0.051419226994422314,0.05235922960749025,0.047841472666439136,0.04603779864761813,0.04964633132771627,0.0463988016723158,0.04866321219959405,0.039347765069933545,0.0505517334403674,0.0495828523734632,0.052266782792423104,0.049090555201835064,0.049671186467550574,0.048815382875845775
1.8239998817443848,[1]white.jpg,0.03858557058400757,0.05212931956402297,0.05139586942146652,0.05233629671767911,0.04781643871264919,0.04602085602532101,0.049619799807047824,0.046393280791435336,0.04862615300728715,0.03913148959058399,0.05053416496922552,0.04956729555932231,0.05224999663233717,0.049058033413652585,0.04965502615630939,0.04879993782042716
1.8239998817443848,[1]white.jpg,0.038580027351382655,0.052138953165883205,0.051410465110595834,0.052349551302141105,0.0478345883291469,0.046026063981779095,0.049639178769490575,0.04638653056460983,0.04863656892020332,0.039483820138433,0.050557075507292215,0.04958966965552207,0.052275254103571665,0.04906949985855816,0.04968010481358824,0.04882544116085066
1.8239998817443848,[1]white.jpg,0.03861125273838672,0.05214121069207319,0.05140894519197287,0.052351451200419806,0.04783235315470137,0.04603542936270587,0.0496357142491,0.046406423617175056,0.048658361871047245,0.039172616800381754,0.05053698128902689,0.049568882533178635,0.05225426581552813,0.04908465434129886,0.04965690370284363,0.04879982606170488
1.8239998817443848,[1]white.jpg,0.038565878697142446,0.05212726320353308,0.05139660702903354,0.052337257842690686,0.04782131139294045,0.046017436208419346,0.04962400193500542,0.046384094224464205,0.04861828519323888,0.039362003131151575,0.05055005705953325,0.049583880553708146,0.05226955440873556,0.04905351836127261,0.04967458393270778,0.048819272079381
1.8249998092651367,[1]white.jpg,0.03860258026153806,0.052152051288134015,0.051423987915991294,0.052365175171515364,0.047850793343877,0.046042961900587306,0.049653081554541775,0.04640360729737369,0.048670789440964396,0.03939588837574582,0.050557410783459045,0.04958877558574386,0.05227581289718305,0.049096165489693346,0.04967871900543201,0.04882088140498178
2.191999912261963,[2]green.gif,0.03857873095020425,0.05213463927920333,0.05140177028200272,0.052343829255560546,0.047826899329054276,0.04602767330737988,0.04962701942050689,0.0464007015705945,0.048635317222513824,0.03917317559399314,0.05054075873383984,0.04957411284138118,0.05225913849581939,0.049066325910845504,0.049662849266868744,0.04880630806759692
2.191999912261963,[2]green.gif,0.038567555077976594,0.05214454110199703,0.051416410674620945,0.05235659210164453,0.04784516070427426,0.04603243422894886,0.04964577253410489,0.04639187263153465,0.04864206744933933,0.039514263214381125,0.05056295401608396,0.04959597284745847,0.0522829878071532,0.049075333663861,0.04968701150262493,0.048830917338242213
2.191999912261963,[2]green.gif,0.038603071999916076,0.05214711155260939,0.05141509192169808,0.052357508523167194,0.04784149501818359,0.04604014558078594,0.04964105631602482,0.04641192214631106,0.04866403921413889,0.03920129408851791,0.050543306832707746,0.0495756998152375,0.052261306615031554,0.04909158338208001,0.049663229246524485,0.04880565986700772
2.191999912261963,[2]green.gif,0.03856628102854264,0.05213278408441354,0.05140203850293618,0.052343069296249066,0.04782922391047763,0.04602199596428823,0.049628740504829946,0.04639227496293485,0.0486206768298956,0.03938350550931758,0.050553454524690455,0.04958799327468792,0.05227436003379345,0.04905877102121961,0.04967842843275409,0.048822714248027116
2.191999912261963,[2]green.gif,0.03860090388070391,0.05215493466316875,0.0514263348491591,0.052368416174461384,0.04785640363173528,0.0460448170953771,0.04965491439758711,0.04640763061137564,0.048669180115363614,0.039419916501035275,0.05055890835033755,0.04959063078053365,0.052278875086173425,0.049096746635049184,0.04968055184847735,0.04882184252999336
2.191999912261963,[2]green.gif,0.03858805162764211,0.052136047439104015,0.05140308903492558,0.052345595043372516,0.0478314367331787,0.04602803093529116,0.04962724293795144,0.0464013497711837,0.048635361926002735,0.039196711980904575,0.05054243511467399,0.04957605744314879,0.05226224538829868,0.0490669294079458,0.04966488327561418,0.04880717978563068
2.191999912261963,[2]green.gif,0.038583313057817585,0.05214507754386396,0.05141797529673282,0.05235820142724531,0.04784920637002067,0.04603323889174925,0.049645884292827167,0.04639341490190207,0.048643363850517735,0.039748129516617,0.05056559152192969,0.049598833870748746,0.05228748050778872,0.04907557953305001,0.04968996193289303,0.048832861940009825
2.191999912261963,[2]green.gif,0.0386229650524813,0.052152900654423316,0.05142177509329022,0.052364079936037054,0.04785168741365521,0.04604626995876669,0.0496466666038831,0.04641455965215679,0.048674075147399326,0.03968572344609778,0.05055253810316779,0.049584975789186456,0.05227250483900366,0.04909824420192769,0.04967290755187363,0.04881413117815628
2.191999912261963,[2]green.gif,0.03858923627009824,0.05214688803516484,0.051416790654276685,0.05235737441270046,0.04784706060255296,0.04603612226678398,0.04964268799337006,0.0464036520008626,0.048639362888260235,0.03983449665719231,0.05057091123711005,0.04960558409757425,0.05229347077530274,0.049073925503960315,0.049695661627729135,0.04883954511160196
2.191999912261963,[2]green.gif,0.03863767250033289,0.05217525239887862,0.05144797133779184,0.05238924800029373,0.04787994001864672,0.04606524658980925,0.04967538859550817,0.04642548965519543,0.04869573398777652,0.03985407678533516,0.05058358467621621,0.04961582119653478,0.052305406606841874,0.04911972422834924,0.04970529522958937,0.04884665296633875
2.191999912261963,[2]green.gif,0.038626362517638506,0.052164054174906514,0.051432794503306685,0.0523752111047758,0.04786208097482693,0.046057065851338605,0.049655272025498395,0.0464295576726863,0.04866882248745233,0.03961788590167593,0.0505736381499336,0.049608176899931064,0.052295683598003816,0.04909938414089491,0.04969615336610715,0.04883952275985751
2.191999912261963,[2]green.gif,0.03863210691596352,0.052180773279759084,0.05145467686112843,0.052395506488741216,0.04788718198385024,0.04606931460730011,0.04968050714498844,0.04642969178315303,0.04868402167368194,0.03994989871381506,0.05060490824042657,0.04963891054855711,0.05232885358677549,0.04911496330678026,0.049729569224067835,0.04887336330096284
2.191999912261963,[2]green.gif,0.038663846393090055,0.052191010378719614,0.05146124827399829,0.05240440248303443,0.04789328401008654,0.04608446909004081,0.04968567039795761,0.04645436810903169,0.048712944831007104,0.03962206567788907,0.050590513716997354,0.04962339843790513,0.05231336382786796,0.04913818676926932,0.04971119609012557,0.04885304556525297
2.191999912261963,[2]green.gif,0.03862540139262693,0.052182337901870955,0.05145380514309467,0.05239497004687429,0.04788637732104985,0.04607166154046792,0.04967878606066538,0.046440107696069204,0.048676511487544954,0.03976460275228056,0.05060676343521636,0.049641324536958284,0.052331356982154485,0.04910980005381108,0.049731424418857625,0.0488750843852859
2.191999912261963,[2]green.gif,0.03866909905303705,0.052209964658017714,0.0514840470533427,0.05242510019840004,0.04791811679817638,0.04609913183440349,0.049709475005802514,0.04646002310037888,0.04873140737192719,0.03979839858989699,0.05061838634233312,0.0496500193655514,0.052341594081115016,0.0491532518450322,0.04973978397128391,0.04888022528651062
2.191999912261963,[2]green.gif,0.03865966661687691,0.05219760414333393,0.05146714913453449,0.05240914105285895,0.047898626077011355,0.0460892747150987,0.04968783851716978,0.04646339821379163,0.048704652333814186,0.039556798584079574,0.050607746911972395,0.049641413943936105,0.052330887595520924,0.049132509426177674,0.04972988214849021,0.0488719327893177
2.191999912261963,[2]green.gif,0.03866217001225591,0.05221380915806403,0.051488897381889505,0.05242901175367972,0.047923436513356746,0.04610129995361566,0.04971374418899348,0.046461006577134915,0.048719471540388054,0.0398833128670827,0.05063910640944319,0.04967239346175116,0.05236423639824824,0.049147172170540356,0.04976374504134,0.04890579568216749
2.191999912261963,[2]green.gif,0.03869176372191473,0.052225968507047714,0.05149748045176034,0.05244009821892955,0.04793157254833848,0.04611900253522426,0.04972062852628571,0.04648776161524792,0.04875096514832558,0.03956424171498319,0.05062591888021456,0.04965790953134412,0.05235008774400803,0.049170842667918525,0.04974716004695416,0.048886483774958106
2.191999912261963,[2]green.gif,0.03865005536676113,0.052215574945875996,0.05148853975397822,0.05243010698915803,0.04792357062382348,0.046105546785062165,0.049713095988404274,0.04647354590577434,0.048715180005452635,0.03972003337383668,0.05064234741238921,0.04967668499668658,0.05236877380237267,0.04914513816179492,0.04976805892801987,0.04890997545838063
2.191999912261963,[2]green.gif,0.038685281716022694,0.05224536982123492,0.05152115094913852,0.05246401458549673,0.04795819347598475,0.04613634748892158,0.049747897654521187,0.04649875867351993,0.048769517096223486,0.03977504101694119,0.05065401502299488,0.04968620683982454,0.05238015084030042,0.049189662836749894,0.04977726784673546,0.04891703860962851
2.191999912261963,[2]green.gif,0.038666707416380335,0.052229589489649474,0.05150083321342864,0.052445127361432,0.04793517117919578,0.04612376345679324,0.04972284134898679,0.04649994331597606,0.04874119743599861,0.03953089291225587,0.050641185121677534,0.04967534389201926,0.0523670080145607,0.04916576882192717,0.049764952035540586,0.0489058403856564
2.191999912261963,[2]green.gif,0.03865957720989909,0.05224671092590224,0.05152396726893989,0.05246636151866454,0.04796105449927503,0.04613614632322148,0.0497496410905887,0.046499250411897945,0.048757134229795246,0.039876674398979475,0.050675048014527324,0.04970873739823549,0.05240272610220028,0.04918268909247984,0.049801005399346995,0.04894301133668558
2.191999912261963,[2]green.gif,0.03868948384398029,0.052259250254541666,0.051533310298122206,0.052478610274626046,0.0479697716796126,0.046155927617064434,0.04975665953834767,0.04652955937737934,0.048787711416210106,0.03957425529649917,0.05066058643586474,0.04969320293583905,0.05238638697700345,0.04920772304626978,0.04978287813459374,0.0489230959323759
2.191999912261963,[2]green.gif,0.03865459277088556,0.05224729207125808,0.05152153092879426,0.052464953358763854,0.047959065194018505,0.04614034845117908,0.04974644479113159,0.04651064980157015,0.04874886408434678,0.039719049897080645,0.05067489155231614,0.049709899688947165,0.05240299432313374,0.04917844226103333,0.04980158654470283,0.04894408422041943
2.191999912261963,[2]green.gif,0.03869855865222915,0.052278539810006595,0.05155501384198831,0.0524981904027689,0.04799424683979116,0.0461707468236383,0.04978075471887049,0.04653322506347001,0.04880630806759692,0.039777052673942166,0.0506913647879797,0.049724048343187374,0.05241801469540771,0.04922598442148977,0.04981488583265374,0.04895485776124689
2.191999912261963,[2]green.gif,0.0386880309805907,0.05226962146396893,0.05154124516740384,0.05248529344621818,0.04797788536284987,0.04616395189332389,0.04976244864016159,0.04654064584262917,0.04878015652658421,0.03952081227550653,0.050679764232607394,0.04971414652039367,0.05240554242200165,0.04920492907821287,0.049803620553448266,0.048944307737863985
2.191999912261963,[2]green.gif,0.038677235088018784,0.05228269723447528,0.05155999828100184,0.05250196784758185,0.04799934303752697,0.04617161854167206,0.04978464392240571,0.046533828560570305,0.04879093006741167,0.03985459087545763,0.05070935794226622,0.04974360611958577,0.052436566643305614,0.04921521088066231,0.04983542708580817,0.0489766060086019
2.191999912261963,[2]green.gif,0.03870951100701225,0.05229691294394886,0.05157063771136257,0.05251490950762147,0.04800877547368711,0.04619023754480333,0.049792243515520515,0.04656042713647212,0.04882521764340611,0.039551121240987926,0.05069878556713886,0.04973189380549119,0.05242425083211074,0.04924281528506461,0.049820920803656674,0.048959931607238244
2.191999912261963,[2]green.gif,0.03867124482050476,0.05228622881009922,0.051560892350780055,0.052503845394116094,0.04799929833403806,0.04617696060859688,0.04978399572181651,0.046547060793287846,0.04878607973886487,0.03970067676313838,0.05071179428241185,0.04974731650916535,0.052439897053229455,0.049214182700417365,0.049838824550965374,0.04898013758422584
2.191999912261963,[2]green.gif,0.0387126849547249,0.05231381086275707,0.05159140248196155,0.05253511548460907,0.048032311860598545,0.04620586141417759,0.04981642810302116,0.04656974781390998,0.048842383783147786,0.03976987776397201,0.05072645702677453,0.04975911823023775,0.052454224521425306,0.0492600261282952,0.04985109565867134,0.04898932415119697
2.191999912261963,[2]green.gif,0.03869319423355987,0.05230205384517358,0.05157533157769818,0.05252013981582401,0.0480146316307344,0.046197635972218036,0.049797384416745236,0.046573122927322734,0.04881645575957963,0.03951319033064727,0.05071385064290174,0.04974798706149901,0.05244190871023043,0.049238993136762756,0.04983927158585448,0.04897763418884685
2.191999912261963,[2]green.gif,0.038687092207323574,0.052317029513958634,0.05159600694131934,0.052538937632910926,0.04803836918334593,0.04620794012641193,0.049821725466457065,0.04656970311042107,0.04882870451554114,0.03985512731732456,0.05074655124503985,0.049780531201425934,0.05247619628622487,0.04925262770088049,0.0498743191211604,0.04901368755265326
2.191999912261963,[2]green.gif,0.03872598424267581,0.052331356982154485,0.05160736162750264,0.052553086287151135,0.04804782397125053,0.04622904017317774,0.04982974974271652,0.04659965444799118,0.04886245564966865,0.0395642864184721,0.05073575535246794,0.04976897534954254,0.05246354519886317,0.04928159556169457,0.049859589321564354,0.04899710255826742
2.191999912261963,[2]green.gif,0.03868910386432455,0.0523200469994601,0.05159719158377547,0.052541463380034376,0.04803700572693416,0.04621395274567041,0.04981973616120054,0.04658418704082811,0.0488241224079278,0.039696809911347615,0.0507499263584526,0.04978506860555036,0.05247941493742644,0.04925173363110228,0.049877917752017706,0.04901735323874393
2.191999912261963,[2]green.gif,0.038726520684542735,0.052351317089953074,0.05163170267721447,0.052575996825217824,0.048073215552951756,0.04624419465591844,0.049855633062795765,0.04660725404110599,0.04888000176906607,0.0397761362524195,0.05076566198654914,0.049798479652223546,0.052494368254467044,0.049297666465957936,0.04989077000507951,0.04902794796561574
2.191999912261963,[2]green.gif,0.0387105838907461,0.05233808485723553,0.05161388833688359,0.0525592553686208,0.04805300957596416,0.04623467281278048,0.04983379540846293,0.046611925555697147,0.04885347024839762,0.039513458551580734,0.050751580387542294,0.04978627559975095,0.05247983962057109,0.0492766781779144,0.049877023682239494,0.04901529687825404
2.191999912261963,[2]green.gif,0.03870177730343071,0.05235424516847672,0.051634183720849006,0.052577047357207224,0.048076657721597874,0.04624470874604091,0.04985780118200793,0.04660924334636251,0.04886480258283646,0.03985894946562642,0.05078282812629081,0.04981727746931046,0.05251300960934277,0.04928845754724235,0.04991077481636701,0.04904958445424848
2.2069997787475586,[2]green.gif,0.03873979762074919,0.05236716447677189,0.05164397378492043,0.05258860320909062,0.04808510668100198,0.04626290306602753,0.04986524431291155,0.0466357078117976,0.04889707850182992,0.03956079954633707,0.050770579370329305,0.0498035534982149,0.05249872684463583,0.04931436321906605,0.049894592153381365,0.049030741933672656
2.2069997787475586,[2]green.gif,0.03870336427728704,0.05235594390105532,0.05163326729932634,0.05257597447347337,0.048074310788430066,0.04624768152805347,0.049853911978472706,0.04661894400345611,0.04885840998392224,0.03968672927459827,0.05078247049837953,0.04981756804198838,0.05251216024305347,0.049283048425084165,0.04991048424368909,0.04904895860540373
2.2069997787475586,[2]green.gif,0.03873836710910405,0.05238328008452416,0.0516638444857412,0.052607669247110994,0.04810736901847947,0.04627629176095626,0.04988750665038903,0.046640401678133214,0.048914356400293874,0.039774012836696244,0.05079822847822052,0.04983093438517265,0.052527560594983175,0.04933025530937377,0.049923783531639995,0.04906004507065356
2.2069997787475586,[2]green.gif,0.03872884526596609,0.0523710089768182,0.051646991270421896,0.05259244770913693,0.04808767713161434,0.04626703813875176,0.04986562429256729,0.046645207303191105,0.04888818250753671,0.039511402191090846,0.05078495154201407,0.04981926677456698,0.052513031961087225,0.04930978111145271,0.04991061835415582,0.049047461038525225
2.2069997787475586,[2]green.gif,0.03872084334145109,0.05238739280550394,0.05166972299453294,0.052612854851824625,0.04811271108540429,0.046278415176679515,0.049892021702769004,0.04664212276245627,0.04890470044668918,0.03986364333196203,0.050820200243020086,0.049854113144172804,0.05255044878130541,0.04932359448952609,0.049948593967985386,0.04908572722503272
2.2069997787475586,[2]green.gif,0.038762194068693405,0.05240225671556672,0.05168192704700554,0.052627428189209485,0.04812339521925393,0.046298799967622754,0.04990165530462924,0.04667088945757025,0.048935679964504236,0.03957937384597943,0.050807437396936106,0.04984023271086606,0.0525354507607759,0.049351064783461664,0.04993214308406628,0.04906710822190144
2.2069997787475586,[2]green.gif,0.03872012808562852,0.052388599799704526,0.05166873951777691,0.05261312307275809,0.04811018533828084,0.046282460842425925,0.04988826660970051,0.046654773849817976,0.048895580934951416,0.0397051694637739,0.05081816623427465,0.04985330848137241,0.052548750048726806,0.04931921354761285,0.049947364622040344,0.04908476610002114
2.2069997787475586,[2]green.gif,0.03875311926044455,0.05241823821285226,0.05170112719549265,0.05264615895106303,0.048145165818353396,0.04631192044161802,0.049923738828151085,0.04667527039948349,0.04895472365078016,0.039797616278841055,0.050836874644383745,0.049869915827502706,0.052567369051858076,0.04936735920516958,0.049964039023404,0.049098646533327885
2.2239999771118164,[2]green.gif,0.038745810240007665,0.05240929751507014,0.051687380872652636,0.052633664325912516,0.04812934078327904,0.046306220746781916,0.04990670679887614,0.0466826688268982,0.04892740981905577,0.039528590682576976,0.05082397768783303,0.04985869525178614,0.05255353332204024,0.04934844962936039,0.049951410287786754,0.04908642012911083
2.2239999771118164,[2]green.gif,0.03874055758006067,0.05242364733501045,0.051707475090917956,0.052651098686587655,0.0481515137137787,0.04631511674107513,0.04992975144740956,0.046679740748374554,0.04894113379015133,0.039875668570478986,0.05085638771729323,0.049891261743457524,0.05258755267710122,0.0493598490190326,0.049986122546925846,0.04912184764407249
2.2239999771118164,[2]green.gif,0.03878566340037148,0.05243938296310698,0.05171999206781293,0.052665292044316775,0.048161929626694876,0.046335903863418564,0.04993770866843565,0.04670933445803338,0.04897247093587767,0.039515112580670426,0.050844496589243005,0.049877783641550974,0.05257297933971636,0.04938698403680134,0.049970073994406936,0.04910318393745231
2.2239999771118164,[2]green.gif,0.03874234571961709,0.05242496608793331,0.051705865765317174,0.05264948936098687,0.048148026841643675,0.04631791070913204,0.04992427527001801,0.04669160952468032,0.04893047200804615,0.03924597522568407,0.05085285614166929,0.04988808779574487,0.052583037624721246,0.04935280821952918,0.049982881543979826,0.04911757846088153
2.2239999771118164,[2]green.gif,0.03877142533915345,0.052450938814990376,0.05173494538485353,0.05267863603575659,0.048179028711203185,0.046343659918744555,0.04995534419481089,0.046707456911499134,0.04898214924122682,0.039356146974104285,0.05086582015345337,0.049898637819127775,0.0525954651946384,0.04939436011247159,0.049993364512129365,0.04912571449586326
2.6639997959136963,[2]green.gif,0.0387535439435892,0.05243457733804909,0.05171406885553227,0.05265959234948067,0.04815582760045858,0.04633145586627196,0.04993180780789945,0.04670987089990031,0.04895204144144552,0.03911168594499659,0.050845211845065574,0.04987981765029641,0.05257429809263922,0.049369728490081845,0.049972979721186125,0.0491064919956317
2.6639997959136963,[2]green.gif,0.03874011054517156,0.052439092390429064,0.051724395361470624,0.05266788484667359,0.04816832222560909,0.04633152292150532,0.04994501768887254,0.04669757744044989,0.04895324843564611,0.03947684639416294,0.05086941878431067,0.04990404694128596,0.05259993554352946,0.049372008368016286,0.04999973475929913,0.049134118751778456
2.6639997959136963,[2]green.gif,0.03876731261817367,0.05244948595160078,0.05173163732667414,0.05267754080027828,0.04817491599022341,0.0463463868315681,0.04994919746508568,0.04671892335640471,0.048984876154050366,0.039211195911311614,0.05085294554864711,0.0498861208422328,0.05258124948516482,0.049394628333405056,0.04997930526486698,0.049111074103245035
2.6639997959136963,[2]green.gif,0.03872254207402969,0.052431269279869706,0.0517137559311099,0.052658295948302264,0.04815734751908154,0.04632595733713595,0.049931405476499255,0.04669856091720592,0.04894050794130658,0.03934105954659695,0.050860545141761915,0.049895977961537594,0.05259043605213595,0.0493604972196218,0.0499911963929172,0.04912600506854118
2.6639997959136963,[2]green.gif,0.03876369163557191,0.05245444803886986,0.051740578024456266,0.052685721538748925,0.04818586834500651,0.046349471372302935,0.04996124505534709,0.04671557059473641,0.048988161860485296,0.03946108841432195,0.05087053637153344,0.04990346579593012,0.052599756729573816,0.04939838342647355,0.04999881833777646,0.04913090010057689
2.6639997959136963,[2]green.gif,0.038756293208157204,0.05243763952703947,0.051719008591056895,0.052665672023972515,0.0481616167022725,0.04633585915992965,0.04993495940386765,0.04671505650461394,0.04896279263052852,0.03919838836173872,0.05085218558933563,0.04988647847014409,0.05258129418865373,0.04937571875759587,0.04998078048000103,0.049112839891057004
2.6639997959136963,[2]green.gif,0.038741138725416506,0.052444702678287346,0.05173188319586315,0.05267716082062254,0.04817766525479141,0.046338653127986566,0.04995380192444347,0.04670785924289933,0.0489618538572614,0.039557267970713135,0.05087699602568102,0.049911110092533836,0.05260833979944465,0.049377350434941104,0.050008697808825706,0.04914129366174861
2.6639997959136963,[2]green.gif,0.03877328053394324,0.05245324104466927,0.05173780640814381,0.052685252152115364,0.048182560286827124,0.04635186300895965,0.04995675235471157,0.046726791170452975,0.048992788671587545,0.03929188570879527,0.05085971812721707,0.04989264755161375,0.052588714967812894,0.0494005068421968,0.0499873965963598,0.04911746670215925
2.6639997959136963,[2]green.gif,0.03873465671952447,0.052433035067681676,0.05171831568697878,0.05266408505011619,0.04816206373716161,0.04632991359590454,0.04993647932249061,0.046706026399853995,0.04894529121462002,0.03941761427135638,0.050863920255174666,0.04989971070286163,0.05259443701439345,0.04936407349873465,0.04999566674180826,0.049129313126720565
2.6639997959136963,[2]green.gif,0.0387764991851448,0.052457376117393505,0.05174545070474752,0.0526910859574182,0.048191411577631425,0.04635398642468291,0.04996562599726033,0.04672133734480588,0.04899252045065408,0.03953701729023663,0.05087451498204648,0.04990800320005455,0.05260465176160953,0.0494019597055864,0.05000400394249009,0.04913525869074568
2.6639997959136963,[2]green.gif,0.03876203760648222,0.05244079112300767,0.0517234565882035,0.052670388242052585,0.048167696376764345,0.04634059772975418,0.04994068145044821,0.04671970566746064,0.04896623479917464,0.03926121911540259,0.050854353708547795,0.04988918303122318,0.05258339525263253,0.049377730414596845,0.049983842668991404,0.0491149409550358
2.6639997959136963,[2]green.gif,0.03875045940285437,0.052446088486443575,0.051734431294731056,0.052678680739245504,0.048180414519359414,0.04634050832277636,0.049953980738399115,0.04670747926324359,0.04896458077008495,0.03961352731150714,0.05087967823501566,0.04991414992977976,0.05260983736632316,0.04937862448437506,0.05001167059083826,0.04914305944956058
2.6639997959136963,[2]green.gif,0.03880057201392317,0.052456660861570935,0.051742299108779324,0.052688716672505936,0.04818689652525145,0.04635559575028369,0.04995892047392374,0.04672989806293226,0.04899866718037929,0.03934816740133374,0.050864635510997236,0.04989738612143828,0.05259282768879267,0.04940412782479856,0.04999240338711779,0.049121557071394574
2.6639997959136963,[2]green.gif,0.038761188240192916,0.05243853359681768,0.05172441771321508,0.05267016472460803,0.04816859044654256,0.04633545682852946,0.04994186609290434,0.04671248605400158,0.04895132618562295,0.03946146839397769,0.05086957524652186,0.049904829252341895,0.05259935439817362,0.04936747096389186,0.05000154525060001,0.049133559958167074
2.6639997959136963,[2]green.gif,0.03878794327830592,0.052460661823828435,0.05175027868154987,0.05269636096910965,0.04819666423757842,0.046357048613673284,0.04996879994497298,0.046723550167506955,0.048997840165834444,0.039586504052460676,0.05088084052572733,0.04991374759837956,0.05260968090411197,0.0494049101358545,0.05001028478268203,0.04914001961231466
2.6639997959136963,[2]green.gif,0.03877804145551222,0.052445373230621005,0.05173022916677346,0.0526778313729562,0.04817413367916747,0.04634531394783425,0.049945352965039366,0.04672538301055229,0.04897287326727787,0.03930911890377032,0.05086103688013993,0.04989548622315958,0.052589094947468634,0.04938327364722176,0.04999021291616117,0.04912073005684973
2.6639997959136963,[2]green.gif,0.03876889959203,0.05244948595160078,0.0517396616029336,0.05268502863467081,0.04818575658628423,0.04634444222980049,0.049958316976823444,0.046714363600535824,0.04896952050560957,0.03965979542252963,0.05088499795019602,0.04991926847926002,0.05261464299138105,0.049381865487321076,0.05001701265776308,0.04914790977810738
2.6639997959136963,[2]green.gif,0.038811814941384186,0.05246164530058447,0.05174802115535988,0.05269533278886471,0.04819378086254369,0.046360043747430295,0.049964463706548654,0.04673595538567965,0.04900421041300421,0.03938927225938705,0.05086941878431067,0.04990185647032934,0.05259738744466155,0.04940629594401073,0.04999756664008696,0.049125178053996334
2.6639997959136963,[2]green.gif,0.0387686984263299,0.05244114875091895,0.05172750225394991,0.05267342807929851,0.048173507830322725,0.04633760259599717,0.04994486122666135,0.046716777588937,0.04895512598218035,0.039490592717002955,0.0508720562901564,0.04990695266806515,0.05260203660750826,0.04936845444064789,0.050004361570401376,0.04913481165585657
2.6639997959136963,[2]green.gif,0.0388032542232578,0.05246341108839644,0.05175349733275143,0.052699534916822305,0.048201648676591956,0.046359753174752376,0.04997320323863068,0.046733988432167584,0.049002176404258774,0.039625083163390536,0.05088428269437345,0.04991689919434776,0.052613145424502544,0.0494059606678439,0.050014375151917354,0.049142791228627115
2.6639997959136963,[2]green.gif,0.03879730865923269,0.052447988384722276,0.051733336059252746,0.05268042417531302,0.048178604028058535,0.046347325604835225,0.04994765519471826,0.04673291554843373,0.04897729891268002,0.039339807848907456,0.05086313794411873,0.04989740847318273,0.05259135247365862,0.049382960722799386,0.04999296218072917,0.04912171353360576
2.6639997959136963,[2]green.gif,0.03878101423752477,0.05245344221036937,0.05174413195182466,0.052689342521350685,0.048191456281120336,0.0463478396949577,0.04996256380826995,0.04672218671109518,0.048974639055089836,0.039700810873605115,0.05088980357525391,0.049924409380484744,0.05261987329958359,0.04938524060073383,0.05002271235259918,0.04915287186537646
2.6639997959136963,[2]green.gif,0.038827327052036176,0.05246439456515247,0.05175222328331748,0.05270022782090042,0.04819876530155722,0.04636453644806581,0.04996848702055061,0.04674845001083017,0.04900825607875062,0.03944027894023406,0.050872637435512236,0.04990570097037565,0.05260053904062975,0.04940958165044566,0.0500010982157109,0.04912951429242066
2.6639997959136963,[2]green.gif,0.03878217652823645,0.05244414388467596,0.05173157027144078,0.05267832311133422,0.04817773231002478,0.04634187177918813,0.04994696229064015,0.046725315955318925,0.04896095978748319,0.03953087056051142,0.050876973673936565,0.049912406493712244,0.05260626108721031,0.04937256716162767,0.050009457768137186,0.049140511350692674
2.6639997959136963,[2]green.gif,0.03880721048202639,0.0524676802715874,0.05175933113805427,0.05270632984713672,0.0482079295167839,0.04636531875912175,0.0499791935061447,0.04673819056012518,0.04900689262233884,0.03967707332099358,0.05088928948513144,0.04992242007522822,0.052618241622238354,0.04941043101673496,0.05001976192233108,0.049148312109507576
2.6639997959136963,[2]green.gif,0.038795341705720625,0.05245024591091226,0.05173704644883233,0.0526860344631713,0.04818318613567187,0.04635168419500401,0.04995248317152061,0.046737654118258254,0.04898275273832711,0.0393907474745211,0.05086763064475425,0.049902169394751714,0.05259568871208295,0.049388347493213115,0.04999754428834251,0.04912651915866365
2.6639997959136963,[2]green.gif,0.03878197536253635,0.052455900902259454,0.051748244672804436,0.05269493045746451,0.04819581487128912,0.046351952415937474,0.049966117735638346,0.04672768524023119,0.048978975293514165,0.039744285016570687,0.05089472095903408,0.04992946087473164,0.05262400837230782,0.049388973342057864,0.050027272108468065,0.04915738691775643
2.6639997959136963,[2]green.gif,0.03882831052879221,0.052468239065198784,0.051758481771764966,0.05270733567563721,0.04820468851383788,0.04636878327951232,0.049974790212487005,0.04675249567657658,0.049014559270687014,0.039485541222756056,0.050879074737915364,0.04991225003150106,0.05260675282558833,0.04941503547609275,0.05000744611113621,0.04913463284190093
2.6639997959136963,[2]green.gif,0.038789574955651156,0.052448189550422374,0.05173782875988826,0.052685810945726747,0.048183834336261076,0.046346185665868005,0.04995395838665466,0.046732781437967,0.04896632420615246,0.03956457699115002,0.05088184635422782,0.0499174803397036,0.052611469043668396,0.049376344606440616,0.05001428574493953,0.049144132333294434
2.6639997959136963,[2]green.gif,0.038814407743741,0.05247078716406669,0.05176384619043424,0.05271202954197282,0.048212265755208226,0.04636797861671193,0.04998290389572428,0.046744359641594846,0.04901172059914119,0.0397121208562995,0.05089492212473418,0.04992829858401997,0.052623673096140994,0.04941490136562602,0.050024791064833526,0.04915343065898784
2.6639997959136963,[2]green.gif,0.03880964682217202,0.052456325585404105,0.05174433311752476,0.05269459518129768,0.048189936362497375,0.04635809914566268,0.04995925575009057,0.04674920997014165,0.04898957002038598,0.03942279987607001,0.05087491731344668,0.04990970193263315,0.05260250599414182,0.04939655058342821,0.05000324398317861,0.04913353760642262
2.6639997959136963,[2]green.gif,0.038794961726064885,0.052460572416850614,0.0517533632222847,0.052701390111612095,0.048201223993447305,0.04635644511657299,0.04997195154094118,0.04673503896415698,0.04898161279935989,0.03977095064770587,0.050899213659669595,0.04993415474106726,0.052628434017709974,0.0493937566153713,0.05002944022768023,0.049161365528269475
2.6639997959136963,[2]green.gif,0.038835999528884835,0.05247288822804549,0.05176266154797811,0.052712588335584204,0.04820985176680705,0.04637329833189229,0.0499789923404446,0.046756608397556354,0.04901728618351056,0.03951690072022685,0.050883254514128506,0.04991672038039212,0.052610239697723354,0.04941912584532807,0.050008228422192144,0.049138365583224965
2.6639997959136963,[2]green.gif,0.03880046025520089,0.052452279919657695,0.05174151679772339,0.05269012483240662,0.0481877235397963,0.046350276035103326,0.049956461782033654,0.04673510601939035,0.0489681570491978,0.03958661581118295,0.05088517676415166,0.04992105661881645,0.0526140171425363,0.04938092671405395,0.050013838710050426,0.04914710511530699
2.6639997959136963,[2]green.gif,0.038836290101562754,0.05247402816701271,0.05176724365559145,0.05271589639376359,0.0482155291098987,0.04637121961965795,0.049985228477147634,0.04674719831314067,0.049013173462530785,0.039737870065912013,0.05089780549976891,0.04993147253173262,0.052625952974075435,0.04941731535402719,0.050024656954366795,0.049155934054366836
