Timestamp,Filename,1/Fp1,2/Fp2,3/Cz,4/Pz,5/P7,6/P8,7/O1,8/O2,9/CP5,10/CP6,11/CP1,12/CP2,13/PO3,14/PO4,15/P3,16/P4
0.3680000305175781,[1]white.jpg,0.054116099073421846,0.06959839249830156,0.07005121648922163,0.07168354203504824,0.06662594576191255,0.06376159206170941,0.06791711663211783,0.06529451939994328,0.06722664889414894,0.06385491059481031,0.06896923559537359,0.06850870025261643,0.07022973987218617,0.0661363084478746,0.06878865585191915,0.06725706961835261
0.3680000305175781,[1]white.jpg,0.05409723420110157,0.06958203102136028,0.0700323292651569,0.07166483362493915,0.06660587389539169,0.06374728694525801,0.06789655302721895,0.06527983430383615,0.06718663927157394,0.06375423833778361,0.0689606748772472,0.0685024641159134,0.07022053095347058,0.06610443486028134,0.06878159270067127,0.06725280043516164
0.3680000305175781,[1]white.jpg,0.05404379118010893,0.06959957714075769,0.07004909307349838,0.07168068101175797,0.06662601281714592,0.06375528886977301,0.0679163790245508,0.06528669628938392,0.06721064504511894,0.06396492588101935,0.06897781866524443,0.06851871383413241,0.07023870292171275,0.06612323267736825,0.06879951879972443,0.0672698771679255
0.3680000305175781,[1]white.jpg,0.054086952398652126,0.06959591145466702,0.07004270047458416,0.07167665769775601,0.06661763091297518,0.06376000508785308,0.06790681247792393,0.06529074195513034,0.06721393075155387,0.06373631223873046,0.06896033960108038,0.06850190532230202,0.07022091093312632,0.06612647368031427,0.06878103390705989,0.06725011822582701
0.3680000305175781,[1]white.jpg,0.0540363033457164,0.06959132934705368,0.0700382301256931,0.07167064507849753,0.06661423344781797,0.06374795749759167,0.0679043314342894,0.06527878377184675,0.06718771215530779,0.06391282396469401,0.0689726330605308,0.06851627749398678,0.07023374083444367,0.06610550774401519,0.06879656836945633,0.06726867017372491
0.3680000305175781,[1]white.jpg,0.0540643100815189,0.06960820491411744,0.07005501628577904,0.0716890182124398,0.06663180191895984,0.06376823052981263,0.06792051409727504,0.06530048731571285,0.06723087337385099,0.06388381140039102,0.06897171663900813,0.06851368469162997,0.07023248913675417,0.0661407117415323,0.06879361793918823,0.06726267990621089
0.3680000305175781,[1]white.jpg,0.05404611576153228,0.06959179873368725,0.07003557026810292,0.07166961689825259,0.06661150653499442,0.06375265136392728,0.0678986764429422,0.06528508696378314,0.06719124373093173,0.06378079221019652,0.06896215009238126,0.06850635331944863,0.07022205087209354,0.0661074523457828,0.06878561601467323,0.06725686845265251
0.3680000305175781,[1]white.jpg,0.05400963771458122,0.06960639442281656,0.07005309403575588,0.07168595602344942,0.06663224895384895,0.06376085445414238,0.06791984354494138,0.06529248539119785,0.06721645649867732,0.06399686652384598,0.06898119377865718,0.06852468174990198,0.07024192157291431,0.06612837357859297,0.06880526319804944,0.06727606860113962
0.3680000305175781,[1]white.jpg,0.05404283005509735,0.06960288519893708,0.070045785015319,0.07168150802630281,0.06662449289852296,0.06376492247163325,0.06790940528028075,0.06529599461507733,0.06721808817602255,0.06376633063153393,0.06896228420284799,0.0685062192089819,0.07022200616860463,0.06613132400886107,0.0687846772414061,0.06725458857471807
0.3680000305175781,[1]white.jpg,0.053999557077831876,0.06959633613781167,0.07004120290770566,0.07167489190994404,0.06662156481999931,0.0637520925703159,0.0679068795331573,0.0652828070858487,0.06718956735009758,0.06392954306954658,0.06897397416519811,0.06851891499983251,0.07023380788967704,0.0661074523457828,0.06879902706134641,0.06727099475514826
0.3680000305175781,[1]white.jpg,0.0540436570696422,0.06960990364669604,0.07005416691948974,0.07168859352929514,0.06663600404691744,0.06376671061118967,0.06791959767575237,0.06529733571974465,0.06722935345522803,0.06388774530741516,0.06897167193551922,0.06851444465094145,0.07023110332859794,0.06614089055548794,0.0687939308636106,0.06726259049923307
0.3680000305175781,[1]white.jpg,0.054038851444584306,0.06959445859127743,0.07003731370417043,0.07167124857559783,0.06661678154668588,0.06375336661974985,0.0678984305737532,0.06528276238235979,0.0671904614198758,0.0637767018409612,0.06896458643252688,0.06850959432239465,0.07022256496221602,0.0661116544737404,0.06878760531992975,0.06725883540616458
0.3680000305175781,[1]white.jpg,0.05399539965336319,0.06960659558851666,0.07005380929157845,0.07168613483740506,0.06663537819807269,0.06376096621286466,0.0679178318879404,0.06528991494058549,0.06721185203931952,0.06399047392493176,0.06898242312460222,0.06852624637201385,0.07024214509035887,0.0661299605524493,0.06880584434340528,0.06727629211858417
0.3680000305175781,[1]white.jpg,0.05404184657834132,0.06960621560886092,0.07004985303280986,0.071684413753082,0.06662987966893669,0.06376890108214629,0.06791311566986033,0.06529742512672247,0.06721440013818743,0.06376078739890902,0.06896559226102737,0.06850966137762801,0.0702250236541061,0.0661369119449749,0.0687875829681853,0.06725668963869687
0.3680000305175781,[1]white.jpg,0.053987509487570466,0.0695977219459679,0.07004316986121772,0.07167547305529988,0.06662458230550078,0.06375435009650589,0.06790839945178026,0.06528265062363751,0.06718621458842929,0.06391521560135073,0.06897699165069958,0.06852231246498972,0.07023626658156712,0.06611107332838456,0.06880191043638115,0.06727278289470469
0.3680000305175781,[1]white.jpg,0.05400492149650115,0.06961511160315413,0.07006123007073761,0.07169482966599817,0.06664387186096571,0.0637746454804713,0.0679262808473445,0.06530245426922492,0.0672294652139503,0.0639013798715329,0.06897891390072274,0.06852258068592318,0.0702385241077571,0.06615036769513699,0.06880166456719214,0.06726969835396986
0.3680000305175781,[1]white.jpg,0.054005234420923524,0.06959948773377987,0.07004316986121772,0.07167674710473383,0.06662377764270039,0.0637615473582205,0.06790473376568959,0.0652908090103637,0.06719108726872054,0.06378562018699886,0.06897055434829645,0.06851589751433104,0.07022931518904152,0.06611956699127758,0.06879440025024416,0.0672644233422784
0.3680000305175781,[1]white.jpg,0.05398180979273436,0.06961359168453117,0.0700609394980597,0.07169310858167512,0.06664452006155491,0.06376876697167956,0.06792824780085657,0.06529767099591148,0.06721299197828674,0.06401503849208814,0.06898877102002753,0.06853259426743916,0.07024898472416219,0.06613619668915233,0.06881335452954226,0.06728239414482047
0.3680000305175781,[1]white.jpg,0.05403482813058235,0.06961093182694099,0.07005412221600082,0.07168859352929514,0.06663649578529546,0.06377363965197082,0.06791805540538495,0.06530377302214778,0.0672168141265886,0.06379418090512524,0.06897120254888565,0.068514668168386,0.07022996338963072,0.06614256693632209,0.06879375204965496,0.06726138350503248
0.3680000305175781,[1]white.jpg,0.053987420080592645,0.06960523213210489,0.07005074710258807,0.07168255855829221,0.06663419355561656,0.06376136854426485,0.06791579787919497,0.06529130074874172,0.06719414945771092,0.06395542638962583,0.06898745226710466,0.06853201312208332,0.0702467271979722,0.06612099750292272,0.06881234870104178,0.06728223768260928
0.3680000305175781,[1]white.jpg,0.05400874364480301,0.06962490166722556,0.07007052839643102,0.07170278688702426,0.06665431012562634,0.06378170863171918,0.06793390279220377,0.06531018797280645,0.0672351202052975,0.06394959258432299,0.06898725110140456,0.06853000146508234,0.07024661543924993,0.06615653677660666,0.06880955473298486,0.06727698502266229
0.3680000305175781,[1]white.jpg,0.05401763963909622,0.06960876370772882,0.07005177528283302,0.071684413753082,0.06663325478234944,0.06376881167516847,0.0679134285942827,0.0652977604028893,0.06719832923392406,0.06383159772534343,0.068978533921067,0.06852338534872357,0.07023816647984582,0.06612763597102594,0.06880215630557016,0.06727173236271529
0.3680000305175781,[1]white.jpg,0.053996226667908036,0.0696206771875235,0.0700674885591851,0.0716989647387224,0.06665064443953567,0.0637752489775716,0.06793396984743713,0.0653040635948257,0.06721804347253364,0.06406479347524566,0.06899476128754155,0.06853880805239773,0.07025528791609859,0.06614205284619962,0.06881862954123372,0.06728789267395648
0.3680000305175781,[1]white.jpg,0.054046853369099306,0.06961973841425638,0.07006274998936057,0.07169619312240995,0.06664230723885384,0.06378148511427463,0.06792409037638789,0.0653093609582616,0.06722729709473814,0.06384033725742545,0.06898050087457906,0.06852474880513534,0.07023995461940225,0.06615168644805985,0.06880211160208125,0.06726998892664778
0.3680000305175781,[1]white.jpg,0.054007380188391234,0.06961482103047621,0.07006015718700376,0.07169125338688533,0.06663875331148544,0.06377093509089173,0.0679239339141767,0.06529869917615642,0.06720315721072641,0.06400122511401476,0.06899549889510857,0.06854111028207663,0.07025615963413234,0.06613002760768266,0.06881985888717876,0.06729021725537983
0.3680000305175781,[1]white.jpg,0.0540434559039421,0.0696345799725747,0.07008076549539155,0.07171333691040717,0.06665873577102849,0.06379366681500277,0.06794525747838706,0.06532152030724529,0.06724915710081543,0.06400837767224046,0.06899822580793212,0.06854204905534375,0.07025960180277846,0.06616918786396836,0.06882026121857895,0.06728787032221202
0.3680000305175781,[1]white.jpg,0.05405454236919193,0.06961815144040005,0.07006241471319374,0.0716953661078651,0.06663689811669565,0.0637813510038079,0.06792384450719888,0.06530922684779487,0.0672134166614314,0.06388016806604481,0.06898859220607188,0.0685342706482733,0.07024918588986229,0.06613863302929796,0.06881123111381901,0.06728116479887543
0.3680000305175781,[1]white.jpg,0.05403022367122456,0.0696309813417174,0.07007996083259116,0.0717111240877061,0.06665558417506029,0.06378776595446657,0.06794416224290875,0.06531477008041979,0.06723599192333125,0.06410777587983321,0.06900922286620413,0.06855335903803814,0.07027035299186146,0.0661550615614726,0.06883170531174007,0.06730087903748501
0.3680000305175781,[1]white.jpg,0.05408836055855281,0.06962917085041652,0.07007522226276663,0.07170846423011591,0.06664849867206796,0.06379304096615802,0.06793502037942653,0.06532020155432243,0.06724175867340072,0.06388039158348936,0.0689905815113284,0.06853404713082875,0.07025057169801852,0.0661617670848092,0.06881022528531852,0.06727843788605188
0.3680000305175781,[1]white.jpg,0.05405253071219095,0.0696198278212342,0.07006777913186302,0.07169923295965587,0.0666421731283871,0.06377777472469505,0.06792949949854607,0.06530607525182668,0.06721455660039861,0.06402138638751345,0.06900401490974604,0.06854788286064659,0.07026364746852487,0.06613557084030758,0.06882580445120387,0.0672962298746383
0.3680000305175781,[1]white.jpg,0.054076670596202685,0.06963784332726518,0.07008677811465003,0.07171948364013238,0.06666284849200826,0.06379646078305969,0.06794970547553367,0.06532438133053557,0.06725780722591963,0.06402279454741414,0.06900374668881258,0.06854546887224541,0.07026427331736962,0.0661712665762027,0.06882388220118071,0.06729086545596903
0.3680000305175781,[1]white.jpg,0.054083532581750464,0.06961987252472311,0.07006668389638471,0.0717000152707118,0.0666412790586089,0.06378222272184166,0.06792775606247856,0.06531112674607358,0.06722296085631381,0.06388656066495903,0.06899440365963026,0.06853851747971981,0.0702542820875981,0.0661424104741109,0.0688158355731768,0.06728599277567777
0.3680000305175781,[1]white.jpg,0.05404736745922178,0.06963397647547441,0.07008431942275994,0.071716421451142,0.0666611274076852,0.06378919646611171,0.06794802909469952,0.06531899456012184,0.06724225041177874,0.064128138319032,0.06901279914531698,0.06855642122702851,0.07027337047736293,0.06615602268648418,0.0688353933495752,0.06730539408986498
0.3680000305175781,[1]white.jpg,0.0540940155499,0.06963071312078394,0.07007817269303473,0.07171248754411787,0.06665319253840357,0.06379404679465851,0.0679378366992279,0.0653232637433128,0.06724884417639306,0.06390531377855703,0.06899283903751839,0.06853686345063012,0.0702530303899086,0.06616290702377642,0.0688145391719984,0.06728284117970958
0.3680000305175781,[1]white.jpg,0.054045758133620996,0.06962400759744734,0.07007280827436546,0.07170508911670316,0.06664811869241222,0.0637811498381078,0.06793385808871485,0.06531065735944001,0.06722224560049124,0.06405558455653007,0.06900669711908068,0.0685525767269822,0.0702677825412491,0.06613834245662004,0.06883190647744017,0.06730320361890836
0.3680000305175781,[1]white.jpg,0.05406768519493165,0.06964486177502414,0.07009386361764236,0.07172732910243619,0.0666703810298897,0.06380423919013013,0.06795692508899273,0.06533285264168413,0.0672679772696468,0.06406760979504703,0.06900877583131503,0.0685530237618713,0.07027037534360592,0.06617761447162801,0.06883221940186254,0.06730076727876273
0.3680000305175781,[1]white.jpg,0.05407720703806961,0.06962700273120435,0.07007314355053229,0.07170678784928176,0.06664791752671212,0.06379044816380121,0.06793300872242555,0.0653186145804661,0.06723096278082881,0.0639270843776565,0.06899721997943163,0.06854330075303325,0.07025799247717768,0.06614757372708008,0.06882155761975736,0.06729238537459199
0.3680000305175781,[1]white.jpg,0.0540470545347994,0.06963994439124398,0.0700895944344514,0.07172162940760009,0.06666731884089933,0.06379617021038177,0.0679536393825578,0.06532355431599073,0.06725188401363898,0.06417422761609884,0.06901733654944141,0.06856274677070937,0.07027969602104378,0.06616283996854305,0.0688425459078009,0.06731297133123533
0.3680000305175781,[1]white.jpg,0.05410841007332922,0.06964012320519962,0.07008718044605022,0.0717218752767891,0.06666367550655311,0.06380448505931914,0.06794816320516625,0.06533298675215087,0.06726355162424465,0.06393812613941742,0.06900124329343359,0.06854656410772372,0.07026317808189131,0.06617499931752674,0.06882432923606982,0.06729365942402595
0.3680000305175781,[1]white.jpg,0.05407412249733478,0.06963263537080709,0.07008125723376957,0.07171371689006291,0.06665956278557333,0.06378986701844537,0.06794400578069756,0.06531832400778818,0.06723362263841899,0.06407905388820814,0.06901277679357253,0.06855903638112978,0.0702753821343639,0.06614652319509068,0.06883845553856557,0.06731017736317842
0.3680000305175781,[1]white.jpg,0.05409915645112472,0.06964955564135976,0.07009960801596737,0.07173345348041694,0.06668034990791677,0.0638089554082102,0.06796403294372952,0.06533935699932063,0.06727843788605188,0.06409543771689388,0.06901512372674033,0.06855934930555216,0.07027799728846518,0.06618653281766568,0.06883829907635439,0.06730780807826615
0.3680000305175781,[1]white.jpg,0.05410635371283933,0.06963120485916195,0.07007899970757958,0.07171385100052964,0.06665907104719532,0.0637948514574589,0.0679405859637959,0.06532684002242566,0.06724137869374498,0.06393586861322743,0.0690034337643902,0.068549179261825,0.07026507798017001,0.06615620150043983,0.06882741377680465,0.06729862151129502
0.3680000305175781,[1]white.jpg,0.05406645584898661,0.06964405711222375,0.07009462357695384,0.0717273738059251,0.06667833825091579,0.06379789129470483,0.06795938378088281,0.06532894108640445,0.06725905892360913,0.06417755802602268,0.06902196336054366,0.06856654656726677,0.07028468046005731,0.06616773500057876,0.06884703860843641,0.06731755343884867
0.3680000305175781,[1]white.jpg,0.0541150708931769,0.06964229132441178,0.07009075672516307,0.07172605505300224,0.0666735326258579,0.0638053567773529,0.06795330410639097,0.06533645127254144,0.06726820078709135,0.06393986957548493,0.06900365728183476,0.0685485757647247,0.07026530149761456,0.06617958142514008,0.06882712320412673,0.06729656515080513
0.3680000305175781,[1]white.jpg,0.05406629938677542,0.06963270242604046,0.07008286655937035,0.0717157732505528,0.06666600008797646,0.06379055992252348,0.06794612919642082,0.0653226155427236,0.06723760124893204,0.06407840568761894,0.06901449787789558,0.06856120450034195,0.07027701381170914,0.06615079237828164,0.06884127185836694,0.0673134854213578
0.38299989700317383,[1]white.jpg,0.05407722938981407,0.06965051676637134,0.07010132910029043,0.07173477223333981,0.06668520023646357,0.06380949185007713,0.06796501642048555,0.06534083221445468,0.06727982369420811,0.06409248728662578,0.06901387202905084,0.06855928225031879,0.07027674559077568,0.0661866222246435,0.06883905903566587,0.06730760691256606
0.3989999294281006,[1]white.jpg,0.0540782128665701,0.06963198717021789,0.07008027375701353,0.07171405216622974,0.06666117211117412,0.06379478440222554,0.0679401389289068,0.06532587889741408,0.06724430677226863,0.06393164413352538,0.06900240558414526,0.06854967100020301,0.0702646309452809,0.06615787788127397,0.06882873252972752,0.06729904619443967
0.3989999294281006,[1]white.jpg,0.05403979021785143,0.06964376653954583,0.07009616584732126,0.07172808906174767,0.06667876293406044,0.06379936650983888,0.06796043431287221,0.06532985750792712,0.06726191994689941,0.06418086608420207,0.069021538677399,0.06856777591321181,0.07028441223912385,0.066169366677924,0.06884873734101503,0.06731844750862688
0.3989999294281006,[1]white.jpg,0.05408102918637147,0.06964374418780138,0.07009243310599722,0.0717267256053359,0.06667250444561296,0.06380743548958724,0.06795272296103513,0.06533680890045272,0.0672721793976044,0.06393557804054951,0.06900276321205655,0.06854900044786935,0.07026449683481417,0.06618199541354125,0.06882810668088277,0.06729591695021593
0.3989999294281006,[1]white.jpg,0.05403963375564024,0.06963397647547441,0.07008449823671559,0.07171639909939755,0.06666401078271994,0.06379205748940199,0.067946039789443,0.06532000038862233,0.06724137869374498,0.06407666225155143,0.06901541429941825,0.06856317145385402,0.0702770361634536,0.06615474863705023,0.06884317175664564,0.06731431243590265
0.3989999294281006,[1]white.jpg,0.05405827511051597,0.06965331073442825,0.07010486067591437,0.07173756620139672,0.06668444027715209,0.06381322459140117,0.06796792214726474,0.06534087691794359,0.0672865292175447,0.0640917273273143,0.06901823061921962,0.06856404317188777,0.07028009835244398,0.06619431122473612,0.06884366349502366,0.06731129495040118
0.3989999294281006,[1]white.jpg,0.05406460065419682,0.06963475878653035,0.07008315713204827,0.0717162202854419,0.06665933926812878,0.06379954532379452,0.06794181530974094,0.06532534245554715,0.06724868771418187,0.0639224799182987,0.06900325495043456,0.06855098975312587,0.07026400509643616,0.06616219176795385,0.06882915721287217,0.06729891208397294
0.3989999294281006,[1]white.jpg,0.054043187683008635,0.06964512999595761,0.07009817750432223,0.07172974309083736,0.06667574544855898,0.06380332276860746,0.067962289507662,0.06533135507480563,0.06726525035682325,0.06417780389521169,0.06902520436348968,0.06857182157895822,0.07028760853858096,0.06617490991054892,0.06885164306779422,0.06732099560749479
0.3989999294281006,[1]white.jpg,0.05409832943657988,0.0696469851907474,0.07009694815837719,0.0717307265675934,0.0666720350589794,0.06381340340535681,0.06795788621400431,0.06534011695863211,0.06727676150521773,0.06394957023257854,0.06900794881677018,0.0685540295903718,0.0702694365703388,0.06619024320724526,0.06883181707046235,0.06729944852583987
0.3989999294281006,[1]white.jpg,0.05404982615111186,0.06963578696677529,0.07008802981233953,0.07172004243374376,0.06666280378851935,0.06379838303308284,0.0679502866208895,0.06532634828404764,0.06724359151644606,0.06407791394924092,0.069018789412831,0.06856592071842202,0.0702799865937217,0.0661588166545411,0.06884500459969098,0.0673151394504475
0.3989999294281006,[1]white.jpg,0.054072244950800534,0.06965344484489498,0.07010673822244862,0.07173966726537552,0.06668231686142884,0.06381621972515818,0.06796890562402078,0.06534306738890021,0.06728813854314548,0.06410853583914469,0.06902118104948772,0.06856616658761103,0.07028246763735624,0.0661965240474372,0.06884498224794652,0.0673121890201794
0.3989999294281006,[1]white.jpg,0.05409464139874475,0.06963464702780807,0.07008595110010518,0.07171941658489901,0.0666591828059176,0.06380258516104044,0.06794588332723181,0.0653293657695491,0.06725188401363898,0.06393669562777228,0.06900703239524751,0.06855376136943833,0.07026791665171583,0.06616518690171086,0.0688316382565067,0.06730067787178491
0.3989999294281006,[1]white.jpg,0.05406370658441861,0.06964421357443494,0.07009951860898955,0.07173099478852686,0.06667545487588106,0.06380374745175212,0.06796331768790695,0.06533137742655008,0.06726741847603541,0.06418587287496005,0.06902629959896799,0.06857215685512505,0.07028792146300333,0.06617417230298189,0.06885168777128313,0.06732036975865004
0.3989999294281006,[1]white.jpg,0.05411475796875453,0.06964747692912542,0.07010016680957876,0.07173354288739477,0.06667469491656958,0.06381456569606848,0.06795978611228301,0.06534163687725507,0.06728476342973273,0.0639544429128698,0.06901273209008361,0.06855845523577395,0.07027321401515174,0.0661931712857689,0.06883577332923094,0.06730262247355252
0.3989999294281006,[1]white.jpg,0.05404960263366731,0.06963650222259786,0.07009205312634148,0.07172335049192315,0.06666756471008833,0.06379914299239432,0.06795357232732444,0.06532614711834754,0.06724993941187137,0.06407563407130648,0.06902203041577702,0.0685690276109013,0.07028260174782297,0.06616056009060861,0.06884773151251454,0.06731746403187085
0.3989999294281006,[1]white.jpg,0.05407083679089985,0.06965527768794032,0.07011167795797324,0.0717437799863553,0.06668870946034305,0.06381856665832598,0.06797465002234579,0.06534599546742385,0.06729551461881574,0.0641207845951062,0.06902647841292363,0.06857175452372485,0.07028722855892522,0.06620235785274003,0.0688498549282378,0.06731779930803768
0.8519999980926514,[1]white.jpg,0.0540822138288276,0.0696373292371427,0.0700919413676192,0.07172449043089037,0.06666600008797646,0.06380616144015329,0.06795138185636782,0.0653342160980959,0.06725809779859755,0.0639430882266865,0.06901217329647223,0.06855863404972959,0.07027236464886244,0.06617086424480251,0.0688358403844643,0.0673048352962536
0.8519999980926514,[1]white.jpg,0.05404835093597781,0.06964656050760275,0.07010566533871476,0.07173606863451822,0.06668164630909518,0.06380714491690932,0.06796895032750969,0.06533593718241897,0.06727372166797181,0.06420212259317906,0.06903280395660448,0.06857843769531699,0.07029487285552893,0.06618110134376304,0.06885729805914141,0.06732658354360861
0.8519999980926514,[1]white.jpg,0.05411372978850958,0.06964877333030382,0.07010506184161447,0.0717380802915192,0.06667880763754935,0.06381765023680332,0.06796561991758585,0.06534769420000246,0.06728704330766717,0.06396953034037714,0.06901463198836232,0.06855999750614136,0.07027652207333113,0.0661959205503369,0.06883680150947588,0.06730432120613113
0.8519999980926514,[1]white.jpg,0.054075575360724375,0.06963746334760944,0.0700946459286983,0.07172560801811313,0.06666810115195526,0.06379952297205006,0.06795435463838037,0.06532853875500426,0.0672540744845956,0.06409054268485817,0.06902605372977898,0.0685729838696699,0.07028731796590304,0.0661643151836771,0.06885110662592729,0.0673210403109837
0.8519999980926514,[1]white.jpg,0.054088517020764,0.06965704347575229,0.07011541069929728,0.07174755743116824,0.066689983509777,0.0638199077629933,0.06797726517644706,0.06534975056049235,0.06729888973222849,0.06414125879302726,0.06902846771818015,0.06857410145689266,0.07029100600373817,0.06620369895740735,0.06885195599221659,0.06731956509584965
0.8519999980926514,[1]white.jpg,0.05410027403834749,0.06963873739704339,0.07009511531533186,0.07172784319255866,0.06666673769554349,0.06380774841400962,0.06795372878953562,0.06533633951381916,0.06726516094984543,0.06396282481704053,0.06901612955524082,0.06856359613699867,0.0702776843640428,0.06617493226229337,0.06884026602986645,0.06730959621782258
0.8519999980926514,[1]white.jpg,0.054067618139698286,0.06965120967044945,0.07011178971669552,0.07174210360552115,0.06668515553297466,0.06381201759720058,0.06797304069674501,0.06534040753131003,0.06728027072909722,0.06422038396839905,0.06903756487817346,0.06858395857619745,0.07030005846024256,0.06618481173334262,0.0688623048498994,0.06733161268611106
0.8519999980926514,[1]white.jpg,0.054117864861233815,0.06965027089718233,0.0701085487137495,0.07174154481190977,0.06668043931489459,0.06382093594323825,0.06796812331296484,0.06534867767675849,0.06729272065075882,0.06398819404699732,0.06901751536339705,0.06856364084048758,0.0702799865937217,0.06619837924222699,0.0688400425124219,0.06730749515384378
0.8519999980926514,[1]white.jpg,0.05408149857300503,0.06963750805109835,0.07009757400722194,0.0717288266693147,0.06666995634674505,0.06380258516104044,0.06795837795238233,0.06533032689456068,0.06725666728695241,0.06411459316189208,0.06902703720653501,0.06857450378829286,0.07028950843685966,0.06616558923311106,0.06885213480617224,0.06732256022960666
0.8519999980926514,[1]white.jpg,0.05411312629140929,0.0696553894466626,0.07011773528072063,0.07174983730910268,0.0666911905039776,0.06382258997232794,0.06797896390902566,0.06535198573493788,0.06730367300554192,0.06415531804028965,0.06903047937518113,0.06857629192784928,0.07029272708806122,0.06620448126846329,0.0688534535590951,0.0673212414766838
0.8519999980926514,[1]white.jpg,0.05412968893405067,0.06963768686505399,0.07009761871071085,0.07172983249781519,0.06666883875952229,0.06381002829194406,0.06795325940290206,0.06533730063883074,0.06727077123770371,0.06395904737222759,0.06901805180526398,0.06856509370387717,0.07027989718674388,0.06617741330592791,0.06884171889325605,0.06731060204632307
0.8519999980926514,[1]white.jpg,0.054087712357963606,0.06965000267624886,0.07011257202775145,0.07174313178576609,0.06668739070742019,0.06381264344604533,0.067975544092124,0.06534194980167744,0.06728315410413195,0.06422244032888894,0.06903758722991792,0.06858389152096409,0.0703016901375878,0.06618586226533202,0.06886272953304405,0.06733167974134442
0.8519999980926514,[1]white.jpg,0.05414736916391482,0.06964863921983709,0.07010977805969454,0.07174286356483263,0.06668334504167378,0.06382165119906082,0.06796921854844315,0.06535194103144897,0.0672974815723278,0.06398752349466366,0.069018543543642,0.06856480313119925,0.07028211000944495,0.06620025678876124,0.06884167418976714,0.06730870214804437
0.8519999980926514,[1]white.jpg,0.05410485614596083,0.06963811154819864,0.07009925038805609,0.07173023482921538,0.06667337616364671,0.06380372510000766,0.06796052371985004,0.06533383611844017,0.06726120469107684,0.06410683710656609,0.06902802068329104,0.06857562137551562,0.0702919894804942,0.06616668446858937,0.06885387824223975,0.06732354370636269
0.8519999980926514,[1]white.jpg,0.054120815291501916,0.06965559061236269,0.07011831642607647,0.0717501278817806,0.06669376095458995,0.06382118181242726,0.06797983562705942,0.0653518739762156,0.06730534938637607,0.0641578437874131,0.06903063583739232,0.06857664955576057,0.07029422465493973,0.06620584472487506,0.06885419116666212,0.067322135546462
0.8519999980926514,[1]white.jpg,0.05413876374229953,0.06963835741738765,0.07009925038805609,0.07173162063737161,0.06667212446595722,0.06381047532683316,0.06795627688840353,0.0653415698220217,0.06727264878423796,0.06396897154676576,0.06901870000585318,0.06856594307016647,0.0702816853263003,0.06617873205885078,0.06884272472175654,0.06731196550273484
0.8519999980926514,[1]white.jpg,0.054104096186649346,0.06965082969079371,0.07011420370509669,0.07174389174507757,0.06668975999233245,0.06381179407975603,0.06797538762991281,0.06534248624354437,0.06728619394137787,0.06422898939001434,0.06904169995089769,0.06858728898612129,0.0703052887684451,0.0661866222246435,0.06886632816390136,0.06733489839254599
0.8519999980926514,[1]white.jpg,0.05415845562916465,0.06965375776931736,0.07011632712081994,0.07174827268699081,0.06669094463478858,0.06382372991129516,0.06797402417350104,0.06535406444717222,0.06730190721772995,0.06399141269819889,0.06902475732860057,0.06856913936962358,0.07028848025661472,0.06620383306787408,0.06884674803575849,0.06731290427600196
0.8519999980926514,[1]white.jpg,0.05412803490496098,0.06964184428952268,0.07010403366136952,0.07173403462577278,0.06668023814919449,0.06380464152153033,0.0679632953361625,0.0653352219265964,0.06726574209520127,0.06409849990588426,0.06903488266883882,0.06858053875929579,0.07029925379744217,0.06617164655585844,0.06885922030916457,0.06732821522095385
0.8519999980926514,[1]white.jpg,0.054152152437228256,0.06966330196419977,0.07012674303373612,0.07175725808826185,0.06670486977158424,0.06382694856249672,0.06798741286842977,0.06535878066525229,0.06731116083993445,0.06415057947046512,0.06904006827355245,0.06858429385236428,0.07030502054751164,0.0662119243993669,0.06886277423653296,0.06732973513957681
0.8519999980926514,[1]white.jpg,0.05415995319604316,0.06964454885060177,0.07010647000151515,0.07173763325663009,0.06668294271027358,0.0638150574344465,0.06796407764721843,0.06534454260403426,0.06727644858079536,0.06395419704368079,0.0690250926047674,0.06857148630279139,0.0702892402159262,0.06618322475948629,0.06884875969275948,0.06731726286617075
0.8519999980926514,[1]white.jpg,0.05411589790772175,0.06965652938562981,0.07011959047551042,0.0717486303149021,0.06669870069011458,0.06381691262923629,0.06798180258057149,0.06534561548776811,0.06728681979022262,0.06422742476790247,0.06904433745674342,0.06859061939604513,0.07031072024234775,0.0661914725531903,0.06887001620173648,0.06733921227922586
0.8519999980926514,[1]white.jpg,0.054171777268860015,0.06965670819958546,0.07011959047551042,0.07175164780040356,0.06669657727439132,0.06383023426893165,0.06797923212995913,0.06536255811006524,0.06730456707532013,0.06399941462271388,0.06902770775886867,0.06857439202957058,0.07029339764039488,0.06621174558541126,0.06885144190209412,0.06731947568887182
0.8519999980926514,[1]white.jpg,0.05414023895743358,0.06964727576342532,0.07010906280387197,0.07173906376827523,0.0666859378440306,0.06381396219896819,0.06796982204554344,0.06534530256334574,0.06726871487721382,0.06409939397566247,0.06903653669792852,0.06858494205295348,0.07030276302132166,0.06617613925649396,0.06886402593422246,0.0673336913983454
0.8519999980926514,[1]white.jpg,0.054154968757029624,0.0696678393683242,0.07013027460936005,0.07176049909120787,0.06670813312627472,0.06383235768465491,0.06799168205162073,0.06536179815075376,0.067313887752758,0.06415706147635716,0.06904096234333067,0.06858789248322159,0.07030712161149044,0.066214874829635,0.06886673049530155,0.06733364669485649
0.8519999980926514,[1]white.jpg,0.05416855861765845,0.0696482368884369,0.07010973335620563,0.07174078485259829,0.06668441792540764,0.06382042185311577,0.06796575402805258,0.06535030935410373,0.06727955547327465,0.06396490352927489,0.06902583021233442,0.06857410145689266,0.07029120716943826,0.06618592932056538,0.06885204539919441,0.06731994507550539
0.8519999980926514,[1]white.jpg,0.05412935365788384,0.06966075386533187,0.07012372554823465,0.07175247481494841,0.06670149465817149,0.06382077948102706,0.06798611646725136,0.06535026465061482,0.06729343590658139,0.06423332562843867,0.06904999244809061,0.06859701199495935,0.07031595055055029,0.06619504883230315,0.06887716875996218,0.06734477786359523
0.8519999980926514,[1]white.jpg,0.05418248375445411,0.06966327961245532,0.07012618424012473,0.07175736984698412,0.0667019863965495,0.06383398936200015,0.06798406010676147,0.06536436860136612,0.06730964092131149,0.06400998699784125,0.06903135109321488,0.06857770008774997,0.07029637042240744,0.06621225967553374,0.0688558004922629,0.06732193438076191
0.8519999980926514,[1]white.jpg,0.054144150512713256,0.06964854981285927,0.07011132033006195,0.07174094131480947,0.06668788244579821,0.06381313518442334,0.06797087257753284,0.06534476612147881,0.06727162060399301,0.06412489731608598,0.06903948712819662,0.06858704311693228,0.07030513230623392,0.06617779328558365,0.06886679755053492,0.06733592657279093
0.8519999980926514,[1]white.jpg,0.054161115486754834,0.06967032041195874,0.07013402970242855,0.07176452240520982,0.06671316226877716,0.06383343056838876,0.06799532538596695,0.06536291573797652,0.06731909570921608,0.06418721397962737,0.06904657263118895,0.06859231812862374,0.07031288836155991,0.06621813818432548,0.06887202785873746,0.06733858643038111
0.8519999980926514,[1]white.jpg,0.05417711933578483,0.06965051676637134,0.07011398018765214,0.07174574693986736,0.06669036348943275,0.0638222099926722,0.0679717442955666,0.06535415385415004,0.06728704330766717,0.06399802881455766,0.06903278160486002,0.06858006937266223,0.07029755506486357,0.06619328304449118,0.06885819212891962,0.06732687411628653
0.8519999980926514,[1]white.jpg,0.054141155378956245,0.0696663418014457,0.07013016285063778,0.0717595826696852,0.06670882603035283,0.06382625565841861,0.06799210673476538,0.06535768542977398,0.06729850975257275,0.06426781437013321,0.06905537921850434,0.06860161645431714,0.07032156083840857,0.06620001091957223,0.06888172851583106,0.06735058931715361
0.8519999980926514,[1]white.jpg,0.054196922981372235,0.06966607358051223,0.0701298052227265,0.07176184019587518,0.06670672496637403,0.06383649275737914,0.06798922335973065,0.06536709551418966,0.06731766519757094,0.06403712201560999,0.06903852600318504,0.06858402563143082,0.07030363473935541,0.06621744528024737,0.06886219309117712,0.0673281928692094
0.8519999980926514,[1]white.jpg,0.054157673318108716,0.06965592588852952,0.07011867405398775,0.071748429149202,0.06669521381797955,0.06381881252751499,0.06797782397005844,0.06534800712442483,0.06727989074944148,0.06413913537730401,0.06904731023875597,0.06859394980596897,0.07031250838190417,0.06618145897167432,0.06887330190817141,0.06734218506123842
0.8519999980926514,[1]white.jpg,0.054179287454997,0.0696770929905287,0.07014113755716533,0.07177176437041334,0.06671866079791317,0.06383901850450259,0.06800180739185899,0.06536886130200163,0.06732624826744178,0.06420373191877984,0.06905336756150336,0.06859873307928241,0.07031872216686275,0.06622216149832744,0.06887761579485129,0.06734428612521721
0.8519999980926514,[1]white.jpg,0.05419037392024683,0.06965655173737427,0.0701190987371324,0.07175102195155882,0.06669427504471243,0.06382596508574069,0.06797675108632459,0.06535571847626191,0.06729310063041456,0.06400632131175057,0.06903747547119564,0.0685845844250422,0.07030242774515483,0.06619471355613632,0.06886223779466603,0.06733076331982175
0.8519999980926514,[1]white.jpg,0.05414826323369303,0.06966911341775815,0.07013268859776123,0.0717627342656534,0.0667103906524647,0.06382748500436365,0.06799492305456675,0.06535974179026387,0.06730161664505203,0.06428895912038793,0.06905676502666057,0.06860367281480703,0.07032256666690906,0.06619884862886055,0.06888300256526501,0.06735233275322113
0.8519999980926514,[1]white.jpg,0.05418293078934321,0.06967087920557012,0.07013291211520578,0.07176579645464377,0.06670989891408668,0.06383933142892496,0.06799150323766509,0.06536955420607975,0.06732343194764041,0.06406296063220032,0.06904169995089769,0.06858800424194386,0.07030700985276817,0.06622061922796002,0.0688657023150566,0.06733290908728946
0.8519999980926514,[1]white.jpg,0.054143256442935044,0.06966066445835405,0.07012175859472258,0.07175269833239296,0.06669872304185903,0.06382281348977249,0.06798198139452713,0.0653548244064837,0.06728639510707797,0.06416707505787314,0.0690509982765911,0.06859891189323805,0.07031657639939504,0.06618704690778815,0.06887759344310683,0.06734815297700798
0.8519999980926514,[1]white.jpg,0.05416462471063432,0.06968138452546412,0.07014390917347779,0.071775184187315,0.06672179004213691,0.06384187952779287,0.06800511545003837,0.06537351046484834,0.06732857284886513,0.06423842182617448,0.06905495453535969,0.06860083414326121,0.07032075617560818,0.06622321203031684,0.06887964980359672,0.06734757183165214
0.8519999980926514,[1]white.jpg,0.054187781117890015,0.06966126795545434,0.07012292088543426,0.07175526878300532,0.06669816424824765,0.06382978723404255,0.06797999208927061,0.06536050174957535,0.06729783920023909,0.06403072941669577,0.06904207993055343,0.06858945710533346,0.0703069427975348,0.06619855805618263,0.06886719988193511,0.06733568070360192
0.8519999980926514,[1]white.jpg,0.05415304650700647,0.06967646714168395,0.0701387012170197,0.07176874688491187,0.06671660443742328,0.0638329611817552,0.0680012485982476,0.06536296044146543,0.0673065340288322,0.06430578998396277,0.06906398464011963,0.06861064655907709,0.07032962981815694,0.06620445891671883,0.0688901104200018,0.067359395904469
0.8519999980926514,[1]white.jpg,0.05420698126637712,0.06967637773470613,0.07013872356876416,0.07177145144599097,0.06671539744322269,0.06384406999874949,0.06799726998773456,0.06537435983113764,0.06732709763373108,0.06407757867307409,0.06904710907305588,0.06859336866061314,0.07031221780922625,0.06622386023090604,0.06887079851279242,0.06733838526468101
0.8519999980926514,[1]white.jpg,0.05417414655377228,0.06966560419387867,0.07012712301339186,0.07175826391676234,0.06670460155065078,0.06382761911483038,0.06798759168238541,0.06535949592107486,0.06729055253154666,0.06417422761609884,0.06905841905575026,0.06860593034099702,0.07032357249540955,0.06619245602994633,0.06888454483563243,0.06735485850034457
0.8519999980926514,[1]white.jpg,0.05419466545518225,0.06969003465056832,0.07015305103696001,0.07178423664381942,0.066732496527731,0.06384932265869649,0.06801419025828723,0.06538090889226304,0.06733581481406865,0.06424365213437702,0.06906485635815339,0.06861013246895462,0.0703300992047905,0.0662304316437759,0.06888910459150131,0.06735584197710061
0.8680000305175781,[1]white.jpg,0.05421762069673785,0.06966853227240231,0.07013020755412669,0.07176230958250875,0.06670750727742997,0.06383430228642252,0.06798718935098522,0.06536434624962166,0.06730344948809737,0.06403383630917506,0.06904847252946765,0.06859491093098055,0.07031248603015972,0.06620365425391844,0.06887269841107112,0.06734111217750456
0.8680000305175781,[1]white.jpg,0.05418977042314654,0.06968008812428571,0.07014422209790017,0.07177429011753679,0.0667240922718158,0.06383658216435696,0.06800748473495064,0.06536895070897945,0.06731346306961335,0.0643100815188982,0.06907209832335691,0.06861782146904724,0.07033796701883877,0.06620989039062147,0.06889793353056116,0.06736679433188371
0.8680000305175781,[1]white.jpg,0.054233401028323296,0.06968312796153163,0.07014627845839005,0.07177891692863905,0.06672520985903857,0.06384941206567431,0.06800692594133925,0.06538043950562948,0.06733319965996738,0.06408459712083306,0.06905294287835871,0.06859826369264885,0.07031805161452909,0.06622616246058494,0.06887643115239515,0.06734283326182762
0.8680000305175781,[1]white.jpg,0.054202645027952794,0.06966895695554697,0.07013217450763876,0.07176282367263122,0.0667107929838649,0.06383034602765393,0.06799262082488786,0.06536088172923109,0.06729491112171544,0.0641753452033216,0.0690623529627744,0.06860861255033165,0.07032665703614438,0.06619221016075733,0.06888729410020043,0.06735751835793476
0.8680000305175781,[1]white.jpg,0.05421918531884972,0.06969188984535811,0.07015548737710564,0.0717866953357095,0.06673598339986603,0.06385137901918637,0.0680174536129777,0.06538220529344145,0.06734068749435991,0.06424928477397976,0.06906923730006663,0.06861413343121212,0.07033456955368156,0.06623179510018767,0.06889308320201436,0.06736096052658087
0.8680000305175781,[1]white.jpg,0.05423708906615842,0.06967550601667237,0.07013579549024052,0.07176838925700059,0.06671389987634418,0.06384225950744861,0.06799378311559953,0.06537375633403734,0.06731002090096723,0.06405060011751654,0.06905312169231435,0.06859967185254953,0.0703174481174288,0.06620736464349802,0.06887721346345109,0.06734696833455185
0.8680000305175781,[1]white.jpg,0.054194397234248785,0.06968301620280935,0.07014739604561282,0.07177766523094956,0.06672807088232885,0.06383982316730298,0.06801108336580794,0.06537178938052528,0.06731764284582649,0.06431504360616727,0.06907437820129135,0.0686199895882594,0.07034035865549548,0.06620991274236593,0.06890023576024006,0.0673692977272627
0.8680000305175781,[1]white.jpg,0.054253405839610795,0.06968750890344487,0.07014931829563598,0.07178200146937389,0.06672932258001835,0.06385204957152003,0.06800960815067389,0.06538229470041927,0.06734015105249298,0.06408479828653316,0.06905748028248314,0.06860226465490635,0.07032301370179816,0.06622904583561967,0.06888134853617532,0.06734763888688551
0.8680000305175781,[1]white.jpg,0.05420742830126623,0.06967412020851614,0.07013566137977378,0.07176662346918862,0.06671640327172318,0.06383343056838876,0.06799776172611258,0.06536378745601028,0.06729967204328442,0.0641753452033216,0.06906369406744171,0.06861024422767689,0.07032933924547902,0.0661929701200688,0.06889022217872408,0.06735990999459147
0.8680000305175781,[1]white.jpg,0.05421239038853531,0.06969325330176988,0.07015658261258395,0.07178770116420999,0.06673862090571175,0.06385122255697519,0.06802033698801244,0.06538220529344145,0.06734462140138404,0.06426003596306276,0.06907044429426722,0.06861516161145706,0.07033631298974907,0.06623130336180966,0.0688953630799488,0.06736221222427037
0.8680000305175781,[1]white.jpg,0.05423552444404655,0.06967720474925097,0.07013753892630803,0.07176990917562355,0.0667171408792902,0.0638420136382596,0.06799838757495733,0.06537239287762557,0.0673140889184581,0.06404997426867179,0.06905352402371455,0.0686001412391831,0.0703185433529071,0.06620600118708625,0.06887893454777415,0.06734743772118541
0.8680000305175781,[1]white.jpg,0.05419504543483799,0.06968654777843329,0.07014826776364658,0.07177802285886084,0.0667301942980521,0.06384013609172536,0.0680136538164203,0.0653683248601347,0.06732166615982844,0.06432657710630621,0.06907609928561441,0.06862273885282741,0.07034174446365171,0.0662095774661991,0.06890294032131915,0.06737291870986446
0.8680000305175781,[1]white.jpg,0.05424222996738314,0.06969325330176988,0.07015396745848268,0.07178680709443178,0.06673417290856515,0.06385795043205623,0.06801651483971058,0.06538734619466617,0.06734466610487296,0.06412411500503004,0.06905946958773966,0.06860610915495266,0.07032469008263231,0.06623286798392153,0.06888450013214352,0.06735295860206587
0.8680000305175781,[1]white.jpg,0.054201259219796565,0.06967986460684115,0.07013872356876416,0.07177004328609028,0.06671915253629118,0.06383843735914675,0.06800214266802582,0.06536720727291194,0.06730684695325458,0.06420983394501614,0.06906867850645525,0.06861708386148022,0.07033374253913671,0.06619904979456065,0.06889659242589384,0.06736795662259538
0.8680000305175781,[1]white.jpg,0.054199024045351034,0.0697053455955202,0.07016386928127638,0.071796194827103,0.06674646636801557,0.06386101262104661,0.06802927768579456,0.06538960372085616,0.06735128222123173,0.06430786869619712,0.06907554049200303,0.06862233652142721,0.07034176681539617,0.0662377853677017,0.0689023144724744,0.06737104116333022
1.3359999656677246,[1]white.jpg,0.05420798709487761,0.06968426790049885,0.0701412046123987,0.07177505007684827,0.06672127595201444,0.06384802625751808,0.06800187444709235,0.0653763267846497,0.06732036975865004,0.06409373898431528,0.06905761439294987,0.06860606445146375,0.0703231478122649,0.0662127290621673,0.06888472364958807,0.06735445616894438
1.3359999656677246,[1]white.jpg,0.05416359653038937,0.06969796951984995,0.07015403451371605,0.07178582361767574,0.06673705628359988,0.06384903208601857,0.06801939821474531,0.06537840549688405,0.06732841638665395,0.06437029711846079,0.06908186603568388,0.0686298914110531,0.07034802530384365,0.06621838405351449,0.06891022699001158,0.06738094298612392
1.3359999656677246,[1]white.jpg,0.054199739301173604,0.06970438447050863,0.07015850486260711,0.07179302087939035,0.0667409454871351,0.06386389599608135,0.06802062756069036,0.06539297883426891,0.06735103635204272,0.06415538509552302,0.06906568337269824,0.06861310525096717,0.07033146266120227,0.06624017700435841,0.06889145152466912,0.0673597982358692
1.3359999656677246,[1]white.jpg,0.05415626515820803,0.06969104047906881,0.07014368565603324,0.07177636882977113,0.06672628274277242,0.06384447233014968,0.06800598716807213,0.06537243758111448,0.06731250194460177,0.06422717889871346,0.06907357353849096,0.06862258239061622,0.07033881638512807,0.06620499535858576,0.06890090631257371,0.06737303046858674
1.3369998931884766,[1]white.jpg,0.0541698326670924,0.06971368279620203,0.07016742320864477,0.07180035225157169,0.06675214371110721,0.06386548296993767,0.06803131169453999,0.0653918835987906,0.06735577492186724,0.06432331375161573,0.06908023435833864,0.0686273433121852,0.07034637127475396,0.06624270275148186,0.06890615897252071,0.06737571267792138
1.3369998931884766,[1]white.jpg,0.05418780346963447,0.06969421442678146,0.07014536203686739,0.07177992275713954,0.0667286967311736,0.06385386006282091,0.06800663536866133,0.06537786905501712,0.06732644943314188,0.06409481186804913,0.06906306821859697,0.06861158533234421,0.0703281993065118,0.06621818288781439,0.06888923870196804,0.06735937355272455
1.3429999351501465,[1]white.jpg,0.05413941194288873,0.06970592674087604,0.07015823664167364,0.07179011515261116,0.06674472293194805,0.06385363654537636,0.06802324271479163,0.0653714764561029,0.06733201501751125,0.06436540208642508,0.0690859564049192,0.06863431705645526,0.07035204861784561,0.06622106626284913,0.0689139150278467,0.06738440750651449
1.3429999351501465,[1]white.jpg,0.054183914266099246,0.06971234169153472,0.07016315402545381,0.07179773709747042,0.06674818745233863,0.0638693721734729,0.06802536613051488,0.0653862286074434,0.06735666899164545,0.06416432579330514,0.06907160658497889,0.06861965431209258,0.07033676002463818,0.06624639078931699,0.06889703946078295,0.06736534146849411
1.3429999351501465,[1]white.jpg,0.054152912396539736,0.06969767894717203,0.07014878185376905,0.0717814426757625,0.06673280945215337,0.06385028378370806,0.0680096528541628,0.06536582146475571,0.06731572059580333,0.06423703601801825,0.06907706041062599,0.06862678451857382,0.07034221385028527,0.06620870574816534,0.06890510844053131,0.06737607030583266
1.3429999351501465,[1]white.jpg,0.05416531761471243,0.06971752729624835,0.07017068656333525,0.07180412969638464,0.06675703874314293,0.0638689698420727,0.06803529030505304,0.06538506631673173,0.06735993234633593,0.06433355085057627,0.06908537525956336,0.06863313241399913,0.07035113219632294,0.06624817892887341,0.06891205983305691,0.06738078652391273
1.3429999351501465,[1]white.jpg,0.054182684920154205,0.06970074113616241,0.07015128524914804,0.07178622594907594,0.0667356481236992,0.06386023030999068,0.06801061397917438,0.06537697498523891,0.06733107624424413,0.06409832109192862,0.06906838793377733,0.06861712856496913,0.07033302728331414,0.0662236814169504,0.06889498310029306,0.0673642015295269
1.3429999351501465,[1]white.jpg,0.054140395419644764,0.06971030768278928,0.0701631093219649,0.07179518899860252,0.06675048968201752,0.06385868803962326,0.06802813774682734,0.06537491862474902,0.0673357924623242,0.06436696670853695,0.06909123141661065,0.06863968147512453,0.07035727892604815,0.06622645303326286,0.06891972648140508,0.06738921313157238
1.3429999351501465,[1]white.jpg,0.05419504543483799,0.06971784022067072,0.07016898783075665,0.07180357090277326,0.06675574234196452,0.063875071868309,0.06803142345326227,0.06539130245343476,0.06735948531144682,0.06415925194731378,0.06907685924492589,0.06862475050982839,0.07034212444330745,0.06625171050449735,0.0689027615073635,0.06737066118367448
1.3429999351501465,[1]white.jpg,0.054161540169899484,0.06970188107512963,0.07015249224334863,0.07178510836185317,0.06673967143770115,0.06385450826341012,0.06801472670015415,0.06537100706946934,0.06731531826440314,0.06422628482893525,0.06907978732344953,0.06862973494884192,0.07034482900438654,0.06621210321332255,0.06890799181556605,0.06737922190180086
1.3429999351501465,[1]white.jpg,0.05416829039672499,0.06972376343295138,0.07017593922328225,0.07180824241736442,0.0667649065571912,0.06387352959794158,0.06803971595045519,0.06538774852606637,0.06735957471842464,0.06432744882433997,0.0690906055677659,0.06863867564662404,0.07035582606265856,0.06625224694636428,0.06891731249300391,0.06738606153560418
1.3429999351501465,[1]white.jpg,0.0541769852253181,0.0697097488891779,0.07015879543528503,0.07179255149275679,0.06674592992614864,0.06386664526064935,0.06801908529032294,0.06537963484282909,0.0673311432994775,0.06409642119364992,0.06907442290478026,0.06862369997783899,0.07033955399269509,0.0662310798443651,0.06890135334746282,0.06737081764588566
1.3429999351501465,[1]white.jpg,0.054136394457387264,0.06971602972936984,0.07016818316795626,0.07179936877481566,0.06675779870245441,0.06386302427804759,0.06803298807537414,0.06537596915673842,0.06733197031402234,0.06436265282185707,0.06909447241955667,0.06864352597517084,0.0703602517080607,0.06622967168446442,0.06892294513260665,0.0673933035008077
1.3429999351501465,[1]white.jpg,0.054182304940498464,0.06972441163354058,0.07017392756628127,0.07180768362375303,0.0667628501967013,0.06387911753405541,0.06803560322947541,0.06539132480517922,0.06735695956432337,0.0641542898600447,0.06908137429730586,0.06862951143139737,0.07034684066138752,0.06625535383884357,0.06890758948416585,0.06737537740175455
1.3429999351501465,[1]white.jpg,0.05414336820165732,0.06971003946185582,0.07015906365621849,0.07179107627762274,0.06674800863838298,0.06386007384777949,0.06802071696766818,0.06537219171192547,0.06731525120916977,0.0642168076892862,0.06908622462585266,0.06863623930647841,0.07035178039691214,0.06621869697793686,0.06891489850460274,0.06738653092223774
1.3429999351501465,[1]white.jpg,0.05414978315231599,0.06973011132837668,0.07018130364195152,0.07181347272556696,0.06677194735669462,0.06387902812707759,0.06804472274121318,0.06539295648252445,0.06735564081140051,0.06432201735043733,0.06909391362594529,0.06864220722224798,0.07036009524584952,0.06625535383884357,0.06892113464130577,0.06739062129147307
1.3429999351501465,[1]white.jpg,0.05417086084733735,0.06971448745900242,0.07016196938299768,0.071795948957914,0.06675071319946208,0.06387078033337358,0.06802259451420242,0.06538426165393134,0.06732980219481018,0.06409096736800282,0.06907922852983815,0.06862901969301935,0.07034453843170863,0.06623675718745675,0.06890647189694309,0.06737680791339969
1.3429999351501465,[1]white.jpg,0.054132147625940756,0.06972481396494078,0.07017538042967086,0.07180683425746373,0.06676647117930307,0.06387131677524051,0.06804002887487756,0.06538479809579827,0.06733340082566748,0.06436113290323411,0.06910166968127128,0.06865125967875238,0.07036765013547541,0.06623745009153487,0.06893067883618818,0.06740204303288973
1.3429999351501465,[1]white.jpg,0.05418094148408669,0.06973136302606618,0.0701797613715841,0.07181376329824488,0.06676998040318255,0.06388577835390309,0.06804190642141181,0.06540124897971737,0.06735532788697814,0.06415811200834656,0.06908495057641871,0.06863360180063269,0.07035059575445601,0.0662607853127462,0.06891141163246771,0.0673800489163457
1.3429999351501465,[1]white.jpg,0.05414895613777115,0.06971446510725797,0.0701629081562648,0.07179476431545787,0.06675227782157395,0.06386407481003699,0.06802391326712529,0.06537800316548385,0.06731355247659117,0.06421184560201712,0.06908906329739849,0.06863961441989117,0.07035394851612431,0.06622124507680477,0.06891744660347064,0.06738925783506129
1.3429999351501465,[1]white.jpg,0.05415827681520901,0.06973469343599002,0.07018546106642021,0.0718172501703799,0.06677563539452974,0.06388121859803421,0.06804760611624791,0.06539505754650325,0.06735443381719992,0.064325683036528,0.06909760166378041,0.0686460964257832,0.0703632021383288,0.06625785723422256,0.06892455445820743,0.0673937058322079
1.3429999351501465,[1]white.jpg,0.05417740990846275,0.06971759435148171,0.07016494216501024,0.07179860881550418,0.06675303778088543,0.06387084738860695,0.06802292979036925,0.06538553570336529,0.067327388206409,0.06409391779827092,0.06907916147460479,0.06862890793429707,0.07034371141716378,0.06623501375138924,0.0689061142690318,0.0673756009191991
1.3429999351501465,[1]white.jpg,0.05413903196323299,0.06972564097948562,0.07017578276107106,0.07180681190571928,0.06676676175198099,0.06386829928973904,0.06803841954927678,0.06538231705216373,0.06733351258438976,0.06436173640033441,0.06910249669581613,0.06865157260317475,0.07036803011513115,0.06623566195197844,0.06893128233328848,0.06740108190787815
1.3429999351501465,[1]white.jpg,0.05418380250737697,0.06973424640110092,0.07018159421462944,0.07181505969942328,0.06677208146716135,0.06388419138004676,0.06804197347664517,0.06539950554364986,0.06736185459635909,0.06415990014790299,0.0690878563031979,0.06863547934716693,0.07035332266727956,0.06626123234763531,0.06891438441448026,0.06738165824194649
1.3429999351501465,[1]white.jpg,0.054151437181405686,0.0697183990142821,0.07016527744117707,0.07179726771083686,0.06675596585940907,0.06386418656875927,0.06802623784854864,0.06537891958700652,0.06732144264238389,0.06420741995661497,0.06909196902417768,0.06864115669025858,0.07035718951907033,0.0662230332163612,0.0689206205511833,0.06739077775368425
1.3429999351501465,[1]white.jpg,0.05416080256233246,0.06973829206684733,0.07018724920597663,0.07181917242040306,0.06677981517074288,0.06388086097012292,0.06805066830523829,0.06539514695348107,0.06736308394230413,0.06432364902778256,0.06910097677719317,0.06864813043452864,0.0703667560656972,0.06626004770517918,0.06892784016464236,0.06739591865490897
1.3429999351501465,[1]white.jpg,0.0541858365161224,0.06972327169457336,0.0701690101825011,0.07180236390857267,0.06675824573734351,0.06387332843224149,0.0680273554357714,0.06538931314817824,0.06733836291293656,0.06409619767620536,0.06908524114909663,0.06863375826284387,0.07034947816723325,0.06624192044042593,0.06891125517025652,0.06738118885531293
1.3429999351501465,[1]white.jpg,0.05415411939074032,0.06973219004061103,0.07018105777276251,0.07181179634473281,0.06677196970843907,0.06387230025199654,0.0680431134156124,0.0653872344359439,0.06734097806703783,0.06437320284523998,0.06910772700401867,0.06865613235904364,0.07037263457448895,0.0662411828328589,0.06893526094380152,0.06740649103003633
1.3429999351501465,[1]white.jpg,0.05420157214421894,0.06973896261918099,0.07018615397049832,0.07181973121401444,0.06677612713290776,0.06388685123763695,0.06804608619762495,0.0654038864855631,0.06736500619232728,0.06418781747672767,0.06909129847184402,0.06863892151581305,0.07035638485626994,0.0662645404058147,0.06891668664415916,0.06738545803850389
1.3429999351501465,[1]white.jpg,0.05417027970198151,0.06972168472071703,0.07016822787144517,0.07180010638238268,0.06675813397862124,0.06386572883912668,0.06802896476137218,0.0653826299765861,0.0673227390435623,0.06424253454715426,0.06909534413759043,0.06864518000426054,0.07036031876329407,0.06622790589665245,0.06892290042911774,0.06739531515780868
1.3429999351501465,[1]white.jpg,0.05417414655377228,0.06974457290703927,0.0701921665897568,0.0718237545280164,0.06678379378125593,0.06388524191203616,0.06805422223260668,0.06540071253785044,0.06736672727665034,0.06435762367935463,0.06910678823075155,0.06865443362646503,0.07037274633321122,0.06626512155117054,0.068933271638545,0.06740266888173448
1.3429999351501465,[1]white.jpg,0.05419015040280228,0.06973078188071034,0.07017417343547028,0.07180763892026412,0.06676428070834645,0.06387808935381047,0.06803394920038572,0.06539297883426891,0.06734113452924902,0.0641197340631168,0.06908736456481988,0.06863637341694515,0.07035338972251293,0.06624469205673839,0.06891402678656898,0.06738442985825895
1.3429999351501465,[1]white.jpg,0.05415007372499391,0.069736705092991,0.07018284591231894,0.07181396446394497,0.06677518835964064,0.06387404368806406,0.06804706967438098,0.06538949196213388,0.06734269915136089,0.06438813381053612,0.06910998453020865,0.0686589039753561,0.07037694846116882,0.0662430827311376,0.06893836783628081,0.0674097096812379
1.3429999351501465,[1]white.jpg,0.05419453134471552,0.06974452820355036,0.07018890323506632,0.07182259223730472,0.06678015044690971,0.0638895781504605,0.06805033302907146,0.06540583108733071,0.06736773310515083,0.06419756283731018,0.0690943606608344,0.06864227427748135,0.07036143635051684,0.0662676920017829,0.06892017351629419,0.06738894491063892
1.3429999351501465,[1]white.jpg,0.05415637691693031,0.06972707149113076,0.0701711112464799,0.0718031015161397,0.066762000830412,0.06386794166182776,0.06803330099979651,0.06538379226729778,0.06732678470930871,0.06424394270705494,0.06909813810564734,0.06864806337929527,0.0703650573331186,0.06623052105075372,0.06892638730125276,0.06739819853284341
1.3429999351501465,[1]white.jpg,0.05416265775712225,0.06974879738674132,0.07019522877874718,0.07182712964142915,0.06678792885398016,0.0638870747550815,0.06805969840999823,0.06540406529951874,0.06737124232903031,0.06437948368543192,0.0691101633441643,0.06865832283000026,0.07037757431001357,0.06626849666458329,0.0689370714351024,0.06740691571318098
1.3429999351501465,[1]white.jpg,0.054192497335970084,0.0697361015958907,0.07017882259831698,0.07181257865578874,0.06676913103689325,0.06388200090909014,0.0680383077905545,0.06539807503200472,0.06734882352934164,0.06414011885406004,0.06909386892245638,0.06864298953330392,0.07035991643189388,0.06625045880680785,0.06892039703373874,0.0673905542362397
1.3429999351501465,[1]white.jpg,0.05414828558543749,0.06974133190409325,0.070187562130399,0.07181861362679168,0.06677994928120962,0.06387715058054334,0.0680509141744273,0.06539219652321297,0.06734748242467432,0.06440918915381302,0.06911414195467734,0.06866274847540241,0.07038101647865969,0.06624601080966125,0.06894250290900504,0.06741348712605084
1.3429999351501465,[1]white.jpg,0.05419956048721796,0.06974832800010776,0.070192814790346,0.07182648144083995,0.06678421846440058,0.0638915227522281,0.06805361873550639,0.06540804391003179,0.06737376807615376,0.06422731300918019,0.06909905452717001,0.06864654346067231,0.07036579494068562,0.06627218470241841,0.0689248673826298,0.06739339290778552
1.3429999351501465,[1]white.jpg,0.05417052557117052,0.06973113950862163,0.07017533572618195,0.07180781773421976,0.06676656058628089,0.06387156264442952,0.0680378607556654,0.06538888846503359,0.06733268556984491,0.06426703205907727,0.06910220612313821,0.06865159495491921,0.07036881242618709,0.0662340302746332,0.06893043296699917,0.06740193127416745
1.3429999351501465,[1]white.jpg,0.05417664994915127,0.06975168076177606,0.07019795569157072,0.07183019183041953,0.0667910580982039,0.06388881819114901,0.06806200063967713,0.06540486996231913,0.06737609265757712,0.06439405702281678,0.06911342669885477,0.06866107209456826,0.07038115058912642,0.06627055302507318,0.06894060301072634,0.06741006730914918
1.3580000400543213,[1]white.jpg,0.05419866641743975,0.06973882850871425,0.07018177302858508,0.0718155514378013,0.06677266261251719,0.06388407962132449,0.06804143703477825,0.06540075724133936,0.06735483614860012,0.06415511687458955,0.06909668524225775,0.06864569409438301,0.07036326919356217,0.06625363275452051,0.06892359333319585,0.06739417521884146
1.3580000400543213,[1]white.jpg,0.0541544323151627,0.0697440588169168,0.07019033374671146,0.07182156405705978,0.06678354791206692,0.06388016806604481,0.06805368579073975,0.06539552693313681,0.06735345034044389,0.06441736989228367,0.06911782999251247,0.06866641416149308,0.07038535271708402,0.0662487824259737,0.06894661562998482,0.06741793512319745
1.3580000400543213,[1]white.jpg,0.05419859936220638,0.06975293245946555,0.0701974192497038,0.07183146587985348,0.06679002991795896,0.06389661894996392,0.06805931843034249,0.06541186605833364,0.06738344638150291,0.06424217691924297,0.06910562594003987,0.06865313722528663,0.07037328277507815,0.06627766087980996,0.06893193053387768,0.06740079133520023
1.3580000400543213,[1]white.jpg,0.05417492886482821,0.06973927554360336,0.07018367292686378,0.07181617728664605,0.06677538952534073,0.06387978808638907,0.06804514742435783,0.06539476697382533,0.06734587309907354,0.0642715694632017,0.06911239851860983,0.06866174264690192,0.070379608318759,0.06624281451020414,0.06894082652817089,0.0674124589458059
1.3580000400543213,[1]white.jpg,0.05418056150443095,0.06976232019213678,0.07020877393588709,0.07184103242648035,0.06680268100532066,0.06389941291802083,0.06807272947701568,0.06541488354383511,0.06738726852980477,0.06441278778467033,0.06912337322513738,0.06867086215863968,0.07039208059216506,0.06628005251646668,0.06895059424049786,0.06742030440810971
1.3580000400543213,[1]white.jpg,0.05421312799610233,0.06974539992158411,0.07018897029029969,0.07182297221696046,0.0667807092405211,0.06389118747606128,0.06804930484882651,0.06540726159897585,0.06736259220392611,0.06416937728755204,0.06910339076559434,0.06865224315550841,0.07037071232446579,0.06626047238832383,0.06893020944955462,0.0674008583904336
1.3580000400543213,[1]white.jpg,0.054182684920154205,0.06975089845072012,0.07019759806365944,0.07182864956005211,0.06679094633948163,0.06388678418240358,0.06806141949432129,0.06540203129077331,0.06736033467773613,0.0644369053169376,0.06912482608852698,0.06867356671971878,0.07039263938577645,0.0662556891150104,0.06895316469111022,0.06742535590235661
1.3580000400543213,[1]white.jpg,0.054229400066065796,0.0697600626659468,0.07020571174689672,0.07183917723169056,0.06679814360119624,0.06390417383958981,0.06806582278797899,0.06541859393341469,0.06739066599496198,0.06426338872473106,0.06911309142268794,0.06866073681840143,0.0703804576850483,0.06628586397002506,0.06893885957465883,0.0674084579835484
1.3580000400543213,[1]white.jpg,0.054207204783821676,0.0697438576512167,0.07018955143565553,0.07182172051927097,0.0667809104062212,0.0638854207259918,0.06805035538081591,0.06539997493028342,0.06734866706713045,0.0642913731087891,0.06911619831516723,0.06866563185043714,0.07038356457752759,0.06624817892887341,0.0689442239933281,0.06741701870167478
1.3580000400543213,[1]white.jpg,0.054212256278068575,0.0697636612968041,0.07021154555219955,0.07184328995267034,0.06680489382802174,0.06390135751978844,0.06807438350610537,0.06541541998570204,0.06738784967516061,0.06442456715399827,0.06912625660017212,0.06867358907146323,0.0703943157666106,0.06628175124904528,0.06895341056029923,0.06742350070756682
1.3580000400543213,[1]white.jpg,0.0542329986969231,0.06974966910477508,0.07019509466828044,0.07182853780132983,0.06678609601093483,0.06389561312146343,0.0680538646046954,0.06540934031121019,0.06736721901502836,0.0641772451016003,0.06910993982671974,0.06865843458872253,0.0703766578884909,0.06626706615293815,0.0689366691037022,0.06740693806492544
1.3580000400543213,[1]white.jpg,0.05419086565862485,0.0697552570408889,0.0702029177788398,0.07183367870255455,0.06679642251687318,0.06389053927547207,0.06806492871820077,0.06540422176172993,0.06736212281729255,0.06444352143329637,0.0691293187891625,0.06867767944069855,0.07039715443815642,0.06626011476041255,0.06895817148186821,0.06742922275414738
1.3580000400543213,[1]white.jpg,0.054240017144682066,0.06976164963980312,0.0702092209707762,0.0718425076416144,0.06680214456345374,0.06390513496460139,0.06806989080546985,0.06542373483463941,0.0673918059339292,0.06427009424806765,0.06911534894887793,0.06866241319923558,0.0703829610804273,0.06628736153690357,0.06894201117062702,0.06740953086728226
1.3580000400543213,[1]white.jpg,0.05422019114735021,0.0697449081832061,0.07019207718277898,0.07182388863848313,0.0667838608364893,0.06388577835390309,0.06805133885757195,0.0653994831919054,0.06735117046250945,0.06428636631803111,0.06911919344892424,0.06866813524581614,0.07038633619384005,0.0662508387864636,0.06894797908639659,0.06741847156506438
1.3580000400543213,[1]white.jpg,0.054232797531223,0.06976636585788319,0.07021572532841269,0.07184713445271665,0.06680925241819052,0.06390336917678942,0.06807757980556248,0.06541624700024688,0.06739046482926188,0.0644387605117274,0.06912958701009596,0.06867712064708717,0.07039813791491245,0.06628608748746961,0.06895741152255673,0.06742645113783492
1.7999999523162842,[1]white.jpg,0.05426167598505926,0.0697476574477741,0.07019654753167004,0.07183016947867507,0.06678734770862432,0.06389626132205263,0.06805469161924024,0.06541135196821117,0.06736918596854043,0.06419564058728702,0.06911092330347578,0.06865961923117866,0.07037882600770307,0.06626974836227278,0.06893823372581408,0.06740789918993702
1.7999999523162842,[1]white.jpg,0.054221264031084064,0.06975617346241157,0.07020528706375206,0.07183631620840028,0.06679805419421841,0.06389223800805068,0.0680671191891574,0.06540690397106456,0.06736576615163876,0.06445340090434562,0.06913298447525316,0.06868194862388952,0.07040166949053639,0.0662641380744145,0.06896219479587017,0.06743304490244924
1.7999999523162842,[1]white.jpg,0.054262838275770935,0.06976460007007122,0.07021445127897874,0.07184784970853922,0.06680623493268906,0.063909828830937,0.06807360119504943,0.0654316920556655,0.0673964550967759,0.06428524873080835,0.06912046749835819,0.06866793408011604,0.07038957719678607,0.06629362002535105,0.06894728618231848,0.06741525291386281
1.7999999523162842,[1]white.jpg,0.05423682084522496,0.06974504229367283,0.07019469233688025,0.07182699553096242,0.06678645363884611,0.06388830410102654,0.06805509395064044,0.06541577761361332,0.06735380796835518,0.06430288425718358,0.06912178625128106,0.06867101862085087,0.0703909630049423,0.06625555500454366,0.06895099657189806,0.06742198078894386
1.7999999523162842,[1]white.jpg,0.054239592461537416,0.06976864573581763,0.07021943571799227,0.07185138128416316,0.06681352160138149,0.06390690075241336,0.0680819160439868,0.06543361430568866,0.06739638804154253,0.06444725417462041,0.06913492907702078,0.06868239565877862,0.07040461992080449,0.06629113898171651,0.06896333473483739,0.06743177085301529
1.815999984741211,[1]white.jpg,0.054266123982205865,0.06975282070074328,0.07020213546778387,0.07183571271129999,0.06679365090056072,0.06390106694711052,0.06806032425884298,0.06542603706431831,0.06737546680873237,0.06419733931986563,0.06911485721049991,0.06866362019343616,0.07038369868799432,0.06627455398733068,0.06894290524040524,0.06741196720742788
1.815999984741211,[1]white.jpg,0.05423118820562222,0.06976012972118016,0.07020926567426511,0.0718401607084466,0.06680315039195422,0.06389644013600827,0.06807154483455954,0.06542192434333853,0.06737153290170823,0.06445105397117781,0.06913673956832166,0.068685457847769,0.07040598337721626,0.06626831785062764,0.06896637457208331,0.06743682234726218
1.815999984741211,[1]white.jpg,0.05427043786888574,0.06976636585788319,0.07021635117725744,0.0718496601998401,0.06680965474959072,0.06391179578444907,0.0680772668811401,0.06543667649467903,0.06740217714335646,0.06429155192274474,0.06912306030071501,0.06867061628945068,0.07039284055147654,0.06629728571144172,0.06895030366781994,0.06741802453017527
1.815999984741211,[1]white.jpg,0.05424424162438412,0.06975013849140864,0.07019905092704903,0.07183126471415338,0.06679175100228202,0.06389409320284047,0.0680591172646424,0.06541886215434815,0.06736022291901385,0.06430263838799458,0.06912487079201589,0.06867423727205244,0.07039386873172149,0.06625917598714542,0.06895417051961071,0.06742504297793424
1.815999984741211,[1]white.jpg,0.05425436696462237,0.06977083620677425,0.07022184970639345,0.0718534599963975,0.06681662849386077,0.06390980647919255,0.06808359242482095,0.06543321197428846,0.06740016548635548,0.06445983820674875,0.06913635958866592,0.06868393792914604,0.07040674333652774,0.06629167542358344,0.06896501111567153,0.0674335142890828
1.815999984741211,[1]white.jpg,0.05428963801737285,0.06975344654958802,0.0702039683108292,0.0718380596444678,0.06679622135117308,0.06390406208086753,0.06806325233736663,0.06542892043935304,0.06738114415182402,0.06421676298579729,0.06911883582101296,0.06866764350743812,0.07038837020258548,0.06627866670831045,0.06894686149917383,0.06741639285283003
1.815999984741211,[1]white.jpg,0.05425380817101099,0.06976093438398055,0.07021264078767786,0.07184387109802617,0.06680643609838915,0.0638999270081433,0.06807494229971675,0.06542485242186218,0.06737609265757712,0.06447085761676521,0.06914009232998995,0.06868876590594838,0.07041005139470713,0.06627030715588417,0.0689697273337516,0.06744013040544157
1.815999984741211,[1]white.jpg,0.054304501927435626,0.06976924923291793,0.07022191676162681,0.07185540459816511,0.06681463918860425,0.06391655670601805,0.06808189369224235,0.06544143741624801,0.06741263775976154,0.06431095323693195,0.06913025756242962,0.06867767944069855,0.07040044014459135,0.06630186781905506,0.06895750092953455,0.06742470770176741
1.815999984741211,[1]white.jpg,0.054278640959100836,0.06975371477052149,0.07020497413932969,0.07183752320260087,0.0667971601244402,0.0638986753104538,0.06806414640714484,0.0654232877997503,0.06736860482318459,0.06431296489393293,0.06913023521068516,0.06867971344944399,0.07040032838586907,0.06626279696974718,0.06895966904874672,0.06743007212043668
1.815999984741211,[1]white.jpg,0.05427759042711144,0.0697746136515872,0.070227325883785,0.07185949496740043,0.06682230583695242,0.06391434388331697,0.06809020854117973,0.06543906813133575,0.06740850268703731,0.06447150581735442,0.06914288629804687,0.06869039758329362,0.070414365281387,0.0662969951387638,0.06897153782505248,0.06743963866706355
1.815999984741211,[1]white.jpg,0.0543067147501367,0.06975912389267967,0.07021024915102114,0.0718441616707041,0.06680265865357621,0.06390891240941433,0.06806850499731362,0.06543457543070023,0.06738941429727248,0.06422134509341063,0.0691234626321152,0.06867213620807364,0.07039384637997703,0.06628286883626805,0.0689513765515538,0.06741999148368734
1.815999984741211,[1]white.jpg,0.054268269749673574,0.06976314720668163,0.07021572532841269,0.07184675447306091,0.06681012413622428,0.06390238570003338,0.06807749039858466,0.06542827223876384,0.06738232879428015,0.0644762667389234,0.06914469678934775,0.06869339271705063,0.07041572873779878,0.06627455398733068,0.06897462236578732,0.06744444429212144
1.815999984741211,[1]white.jpg,0.05431744358747525,0.06977465835507611,0.07022734823552945,0.0718606125546232,0.06682152352589649,0.06392165290375386,0.06808725811091162,0.06544698064887293,0.0674160128731743,0.0643183293126022,0.06913401265549811,0.06868154629248932,0.0704051116591825,0.06630593583654593,0.06896174776098106,0.06742848514658036
1.815999984741211,[1]white.jpg,0.05428887805806137,0.0697558605379892,0.0702075669416865,0.07183991483925758,0.06680087051401978,0.06390059756047696,0.0680671191891574,0.06542536651198465,0.06737066118367448,0.0643219279434595,0.06913287271653089,0.06868259682447872,0.07040336822311499,0.06626594856571538,0.06896237360982581,0.06743268727453795
1.815999984741211,[1]white.jpg,0.05429886928783289,0.0697779664132555,0.07023208680535398,0.07186371944710249,0.06682724557247705,0.06391807662464101,0.0680939189307593,0.06544353848022681,0.0674150070446738,0.0644796642040806,0.0691504188359283,0.06869817599036407,0.07042203192973517,0.06630311951674456,0.06897922682514511,0.06744659005958915
1.815999984741211,[1]white.jpg,0.05432891003238082,0.06976694700323903,0.07021775933715813,0.07185142598765207,0.06681054881936893,0.06391512619437291,0.06807552344507259,0.0654405433464698,0.06739473401245284,0.06423256566912719,0.06912947525137368,0.06867837234477667,0.07040039544110244,0.0662885461793597,0.0689574785777901,0.06742542295758998
1.815999984741211,[1]white.jpg,0.05428556999988198,0.06976880219802882,0.0702229225901273,0.07185401879000888,0.06681723199096107,0.06390842067103632,0.06808455354983253,0.06543555890745627,0.06738907902110565,0.06449168944259756,0.06915189405106235,0.06870117112412108,0.0704231718687024,0.06628052190310024,0.06898181962750193,0.0674518203677917
1.815999984741211,[1]white.jpg,0.05433210633183793,0.06978042510514558,0.07023331615129902,0.07186646871167049,0.06682724557247705,0.06392639147357838,0.06809210843945843,0.06545196508788646,0.06742113142265456,0.06433627776339981,0.06913852770787808,0.06868635191754721,0.07040958200807357,0.06630915448774749,0.06896583813021638,0.06743293314372696
1.815999984741211,[1]white.jpg,0.05430948636644916,0.06975930270663531,0.07021185847662192,0.07184402756023736,0.06680511734546629,0.06390457617099,0.06807049430257014,0.06543026154402036,0.06737615971281048,0.0643330814639427,0.0691373207136775,0.06868700011813642,0.07040833031038407,0.06627001658320625,0.06896688866220578,0.06743673294028436
1.815999984741211,[1]white.jpg,0.054312369741483894,0.06977995571851202,0.07023514899434435,0.07186682633958177,0.06683035246495633,0.06392089294444238,0.06809689171277186,0.06544794177388451,0.06741641520457449,0.06450400525379243,0.06915131290570652,0.06869945003979802,0.0704232165721913,0.0663045500283897,0.06898005383968996,0.06744819938518994
1.815999984741211,[1]white.jpg,0.05434835605005694,0.0697685116253509,0.07022003921509257,0.07185379527256433,0.06681285104904783,0.06391733901707398,0.06807744569509575,0.06544452195698285,0.06740003137588875,0.06424823424199036,0.069133565620609,0.06868273093494545,0.07040464227254895,0.06629207775498364,0.06896183716795888,0.06742984860299213
1.815999984741211,[1]white.jpg,0.05430097035181169,0.06977067974456307,0.07022600713086213,0.07185714803423263,0.066820517697396,0.06391025351408165,0.06808571584054421,0.06543629651502329,0.0673918059339292,0.06449750089615594,0.06915497859179719,0.06870414390613364,0.07042665874083742,0.06628166184206746,0.0689855300170815,0.06745427905968178
1.815999984741211,[1]white.jpg,0.054346277337822595,0.069784716640081,0.07023897114264621,0.07187257073790679,0.06683319113650216,0.06393019127013579,0.06809771872731671,0.06545793300365603,0.06742899923670283,0.06435780249331027,0.06914675314983763,0.06869455500776231,0.07041890268551143,0.06631715641226249,0.06897502469718751,0.0674411138821976
1.815999984741211,[1]white.jpg,0.05433000526785913,0.06976672348579448,0.07022021802904821,0.07185245416789701,0.06681361100835931,0.06391143815653778,0.06807883150325197,0.06543953751796931,0.06738460867221459,0.06434837005715013,0.06914503206551458,0.06869482322869577,0.07041680162153263,0.06627797380423234,0.0689753823250988,0.06744439958863253
1.815999984741211,[1]white.jpg,0.054325981953857176,0.06978585657904822,0.07024230155257005,0.07187362126989619,0.06683810852028232,0.06392621265962274,0.06810332901517499,0.06545308267510923,0.06742253958255524,0.06450831914047231,0.06915745963543173,0.06870568617650105,0.07043001150250572,0.06630881921158066,0.06898727345314902,0.0674539661352594
1.815999984741211,[1]white.jpg,0.0543549274629268,0.0697731607881976,0.07022497895061719,0.07185844443541103,0.06681848368865057,0.0639205353165311,0.06808140195386433,0.06544673477968392,0.06740637927131406,0.0642450155907888,0.06913872887357818,0.0686880059466369,0.07041063254006297,0.06629668221434143,0.06896776038023954,0.06743465422805002
1.815999984741211,[1]white.jpg,0.05432052812821008,0.06977615592195462,0.07023226561930962,0.0718631606534911,0.06682711146201031,0.0639155285257731,0.06809246606736971,0.0654421973755595,0.06739636568979808,0.06449803733802287,0.06915929247847706,0.06870903893816935,0.07043153142112868,0.06628646746712535,0.06899044740086167,0.06745906233299521
1.815999984741211,[1]white.jpg,0.05436129771009656,0.06978800234651593,0.07024236860780342,0.07187563292689716,0.0668369238778262,0.06393276172074815,0.06810026682618461,0.06546021288159047,0.0674326649227935,0.06435742251365453,0.06914983769057247,0.0686983101008308,0.07042198722624626,0.06632012919427505,0.06897848921757808,0.06744442194037699
1.815999984741211,[1]white.jpg,0.054336554328984536,0.06977059033758524,0.07022426369479462,0.07185667864759906,0.06681741080491671,0.06391490267692836,0.06808137960211988,0.06544275616917088,0.06738733558503814,0.06435429326943079,0.06914793779229376,0.06869877948746436,0.07042031084541212,0.06628253356010122,0.06897882449374491,0.06744837819914558
1.815999984741211,[1]white.jpg,0.054342656355220835,0.06979057279712829,0.07024724128809468,0.07187905274379883,0.06684271297964012,0.0639306830085138,0.06810811228848843,0.0654586482594786,0.06742917805065847,0.06452856982094882,0.06916534980122445,0.068714716281261,0.07043870633109883,0.06631773755761833,0.06899549889510857,0.06746348797839737
1.815999984741211,[1]white.jpg,0.054379424974849815,0.06978181091330181,0.07023376318618813,0.07186772040935999,0.06682722322073259,0.06393019127013579,0.06809070027955774,0.06545873766645642,0.06741060375101611,0.06427105537307923,0.06914219339396875,0.06869269981297252,0.07041461115057601,0.06630352184814475,0.06897153782505248,0.06743992923974147
1.815999984741211,[1]white.jpg,0.05434153876799807,0.06977823463418896,0.07023398670363268,0.07186494879304753,0.06682927958122248,0.06391832249383002,0.06809365070982584,0.06544666772445056,0.06739911495436608,0.06451665634115414,0.06916201939130061,0.06871277167949338,0.07043515240373044,0.06629026726368276,0.06899366605206324,0.06746310799874163
1.815999984741211,[1]white.jpg,0.05438416354467434,0.0697923162331958,0.07024686130843893,0.07188037149672169,0.06684224359300656,0.06393774615976168,0.06810663707335438,0.06546642666654905,0.06743559300131714,0.06437807552553124,0.06915254225165156,0.06870161815901019,0.07042587642978149,0.06632238672046503,0.068981529054824,0.06744750648111182
1.815999984741211,[1]white.jpg,0.05436538807933188,0.06977264669807513,0.07022632005528451,0.07185909263600024,0.06682042829041818,0.06391666846474033,0.06808453119808808,0.06544626539305036,0.06739071069845089,0.06435784719679918,0.06915095527779523,0.0687021098973882,0.07042346244138031,0.06628387466476854,0.06898164081354628,0.06745108276022467
1.815999984741211,[1]white.jpg,0.054360940082185276,0.06979289737855164,0.07025019171836278,0.07188220433976703,0.06684617750003069,0.06393220292713676,0.06811050392514514,0.0654613975240466,0.06743049680358133,0.06453538710300769,0.06916769673439226,0.06871717497315108,0.07044150029915575,0.06631831870297417,0.0689979352352542,0.06746549963539834
1.815999984741211,[1]white.jpg,0.05443993114709033,0.06978840467791612,0.0702393287705575,0.07187362126989619,0.06683332524696889,0.06393419223239329,0.06809610940171593,0.06546459382350371,0.06742070673950991,0.06429796687340342,0.06915265401037383,0.06870304867065533,0.07042578702280367,0.06631313309826053,0.06898199844145757,0.06744978635904626
1.815999984741211,[1]white.jpg,0.05442669891437279,0.0697904163349171,0.07024654838401656,0.0718778681013427,0.06684228829649547,0.06392920779337975,0.06810710645998794,0.06545987760542364,0.06741270481499491,0.06456372911497701,0.06917598923158517,0.06872674151977795,0.07044936811320401,0.06630287364755555,0.06900727826443652,0.06747676491460382
1.815999984741211,[1]white.jpg,0.05447245293527281,0.06981135991947172,0.07026328984061359,0.07189633064226278,0.06685878388390348,0.06395310180820248,0.06812123276248369,0.0654816035010342,0.06745655893761622,0.06444624834611992,0.06917256941468351,0.06872227117088689,0.07044594829630235,0.06634194449686343,0.06900146681087814,0.06746775716158833
1.815999984741211,[1]white.jpg,0.05445629262403162,0.06979785946582072,0.07024914118637338,0.07188128791824436,0.0668428694418513,0.06393910961617345,0.06810594416927626,0.06546825950959438,0.06741773395749735,0.0644415097762954,0.06917610099030745,0.06872806027270081,0.07044898813354827,0.06630951211565878,0.06900723356094761,0.06747663080413709
1.815999984741211,[1]white.jpg,0.05445577853390915,0.06982220051553255,0.07027900311696567,0.07191065811045863,0.06687460891897784,0.06396067904957282,0.06813969530340377,0.06549239939360611,0.06746109634174065,0.06463483001408935,0.06919670929869524,0.06874679103455436,0.07047109400881457,0.06634592310737647,0.06902752894491303,0.06749435573749014
1.8320000171661377,[1]white.jpg,0.05448809915639152,0.06981887010560871,0.07026852014881613,0.07190238796501017,0.06686213664557178,0.06396206485772905,0.06812413848926288,0.06549280172500631,0.06745304971373674,0.06438165180464409,0.06918294062411078,0.06873342469137009,0.07045547013944031,0.06634078220615175,0.06901241916566124,0.0674788212750937
1.8320000171661377,[1]white.jpg,0.0544439991645812,0.06982077000388741,0.07027889135824339,0.07190996520638052,0.06687373720094408,0.06395906972397204,0.06813799657082517,0.0654910582889388,0.06744694768750044,0.06463518764200063,0.06920971801396823,0.06876011267424972,0.07048329806128717,0.06633389786885951,0.0690414987851976,0.06750928670278629
1.8320000171661377,[1]white.jpg,0.05448803210115816,0.06984345702450956,0.07029751036137466,0.07193088643919068,0.06689311616338683,0.06398472952660675,0.06815619089081179,0.0655163604636622,0.06749015360953255,0.06451951736444442,0.0692062311418332,0.06875548586314748,0.07047981118915214,0.06637332634607868,0.06903546381419466,0.06750106126082674
1.8320000171661377,[1]white.jpg,0.05446802728987066,0.06982897309410252,0.0702822888234006,0.0719147261279495,0.06687713466610129,0.06397116201772238,0.06813989646910387,0.0655029047135001,0.06745003222823527,0.06449709856475574,0.06920790752266735,0.06875966563936062,0.07048083936939709,0.06633997754335136,0.06903915185202979,0.06750886201964164
1.8320000171661377,[1]white.jpg,0.05446297579562376,0.06984873203620101,0.07030812743999093,0.07193987184046172,0.06690516375364826,0.06398922222724227,0.06816946782701824,0.06552067435034208,0.06749171823164442,0.06469240810780622,0.06922795703744376,0.06877803877330288,0.07050205117488517,0.06637603090715777,0.069058553166217,0.06752685517392816
1.8329999446868896,[1]white.jpg,0.05449502819717267,0.06984984962342378,0.07030177954456562,0.07193587087820422,0.06689722888436662,0.06399579364011213,0.0681600353908581,0.0655271116527452,0.06748469978388545,0.06444432609609677,0.0692141883628593,0.0687650747615188,0.07048716491307794,0.0663727675524673,0.06904371160789867,0.06751212537433211
1.8329999446868896,[1]white.jpg,0.05444929652801711,0.06984683213792231,0.07030806038475756,0.07193929069510588,0.06690444849782569,0.06398917752375335,0.06817025013807418,0.06552170253058702,0.06747674256285936,0.0646894129740492,0.0692392893718826,0.0687907345641535,0.07051246708780134,0.06636427388957428,0.06907118190183424,0.06754116029037956
1.8329999446868896,[1]white.jpg,0.054492904781449414,0.06987083791146731,0.07032721582975576,0.07196050250059396,0.0669238498120129,0.06401479262289914,0.06818730451909358,0.06554678118786587,0.06752037316803612,0.06457553083604942,0.06923562368579193,0.06878601834607342,0.07050839907031048,0.06640334473888215,0.0690653480965314,0.06753215253736407
1.8329999446868896,[1]white.jpg,0.05447605156613011,0.06985776214096096,0.07031311187900446,0.07194561623878673,0.06690905295718348,0.06400126981750368,0.06817351349276465,0.0655332136789815,0.0674815258361728,0.06454497600137901,0.06923866352303785,0.06879129335776488,0.07051110363138957,0.06637053237802176,0.06907073486694514,0.06754051208979035
1.8329999446868896,[1]white.jpg,0.054460271234544666,0.06987635879234777,0.07033997867583974,0.0719717901315439,0.06693817728020875,0.06402004528284613,0.06820406832743506,0.0655513185919903,0.06752242952852601,0.06474721458521063,0.06925889185176991,0.06881011352659624,0.070531890753733,0.06640636222438362,0.0690904044020658,0.06755933225862172
1.8329999446868896,[1]white.jpg,0.05447611862136348,0.06987582235048084,0.07033146266120227,0.07196620219543007,0.06692865543707079,0.06402594614338233,0.06819166310926236,0.0655580688188158,0.06751579106042278,0.0644977244136005,0.06924362561030693,0.0687958307618893,0.07051640099482548,0.06640298711097087,0.0690744005530358,0.067543440168314
1.8329999446868896,[1]white.jpg,0.05438624225690868,0.06988228200462843,0.07033751998394966,0.0719696890675651,0.06693723850694162,0.06402111816657999,0.06820098378670023,0.0655523691239797,0.06750358700795019,0.0647243263988884,0.06926472565707274,0.0688176907679666,0.07053830570439168,0.06639073835500936,0.06909773577424715,0.06756896586048196
1.8339998722076416,[1]white.jpg,0.054388186858676295,0.06990047632461505,0.0703492993532776,0.07198392712878313,0.06694959902162541,0.06403942424528888,0.06821063974030492,0.0655698258363993,0.06754089206944609,0.06458974654552299,0.06925616493894636,0.06880790070389517,0.07052943206184292,0.06642500357925935,0.06908649284678613,0.06755501837194185
1.8339998722076416,[1]white.jpg,0.05436129771009656,0.06988377957150693,0.07033097092282425,0.07196519636692958,0.06693057768709394,0.06402219105031384,0.06819059022552851,0.06555169857164604,0.06749788731311408,0.0645303803122497,0.0692540415232231,0.06880756542772834,0.0705269957216973,0.06638774322125235,0.06908604581189702,0.06755703002894282
1.8339998722076416,[1]white.jpg,0.054337180177829285,0.0699032479409275,0.07035251800447917,0.07198591643403965,0.06695469521936122,0.06403508800686455,0.06821533360664053,0.06556537783925269,0.06753396302866495,0.06471809026218536,0.06927055946237558,0.06882271991046904,0.07054418421318343,0.0664184768698784,0.0691017590882491,0.06757198334598342
2.2850000858306885,[2]green.gif,0.054351664108236324,0.06989511190594577,0.07033982221362856,0.07197646164613505,0.0669407477308211,0.06403654087025415,0.06819897212969925,0.06556609309507526,0.06752276480469284,0.06444991403221059,0.06924997350573224,0.06880349741023747,0.07052333003560662,0.0664119725122419,0.06908065904148329,0.067551442092829
2.2850000858306885,[2]green.gif,0.05430418900301325,0.0698941507809342,0.07034107391131805,0.07197588050077922,0.06694443576865623,0.06402789074514995,0.06820409067917951,0.06555771119090452,0.06750731974927422,0.06467792417739918,0.06926868191584133,0.06882312224186923,0.07054253018409373,0.06639733211962368,0.0691019602539492,0.0675756490320741
2.2850000858306885,[2]green.gif,0.0543486242709904,0.06990648894387352,0.07035211567307897,0.07198897862303003,0.06695541047518379,0.06404447573953578,0.06821372428103975,0.0655738267986568,0.06754417777588102,0.06455317909159411,0.06925911536921446,0.06881208048010831,0.07053338832061151,0.06643074797758436,0.06909020323636571,0.06756027103188884
2.2850000858306885,[2]green.gif,0.054328552404469536,0.06988936750762076,0.07033342961471434,0.07196957730884282,0.06693578564355203,0.0640262143643158,0.06819532879535303,0.06555621362402601,0.06750267058642752,0.06449262821586468,0.06925728252616913,0.06881199107313049,0.07053070611127688,0.06639402406144429,0.06908982325670997,0.06756261796505665
2.2850000858306885,[2]green.gif,0.05432359031720046,0.06990941702239717,0.07035663072545895,0.0719911914457311,0.06696019374849722,0.0640399159836669,0.06821908869970902,0.06557060814745523,0.06753946155780095,0.06468438383154676,0.06927491805254436,0.06882815138437168,0.07054874396905231,0.0664246235996036,0.0691072576173851,0.06757781715128626
2.2850000858306885,[2]green.gif,0.05436069421299627,0.0699011021734598,0.07034467254217536,0.07198142373340413,0.06694613450123484,0.06404022890808928,0.06820342012684585,0.06557063049919969,0.06752806216812875,0.06441392772363755,0.06925384035752301,0.06880745366900606,0.07052719688739739,0.06641646521287742,0.06908537525956336,0.0675545936887972
2.2850000858306885,[2]green.gif,0.05431686244211941,0.0699002975106594,0.07034594659160931,0.07197981440780335,0.06694921904196967,0.0640298129951731,0.06820753284782563,0.06555871701940501,0.06751498639762239,0.0646361040635233,0.06927480629382209,0.06882877723321643,0.07054887807951904,0.06640124367490335,0.06910904575694153,0.06757971704956496
2.2850000858306885,[2]green.gif,0.05435392163442631,0.06991627900794495,0.07036072109469427,0.0719968911405672,0.0669651558357663,0.06405080128321664,0.06822230735091059,0.065579973528382,0.06755338669459661,0.06453051442271643,0.06926680436930709,0.06881947890752302,0.07054159141082661,0.06643667118986502,0.06909927804461456,0.06756648481684742
2.2850000858306885,[2]green.gif,0.054338565985985514,0.06989687769375774,0.070339598696184,0.07197545581763456,0.06694287114654436,0.06403236109404101,0.0681997991442441,0.06556117571129509,0.06750962197895312,0.06447713845695716,0.0692626469448384,0.06881755665749986,0.07053645050960189,0.06639914261092456,0.06909684170446893,0.06756762475581464
2.300999879837036,[2]green.gif,0.05433244160800476,0.0699158543248003,0.07036168221970585,0.07199613118125572,0.06696669810613372,0.06404604036164765,0.06822474369105622,0.06557429618529036,0.06754390955494756,0.06468346741002409,0.06927894136654632,0.06883246527105155,0.07055352724236574,0.06642855750662774,0.06911266673954329,0.0675826004245997
2.300999879837036,[2]green.gif,0.054375133439914396,0.06990780769679639,0.07035012636782245,0.07198741400091815,0.06695288472806034,0.06404767203899289,0.06820862808330394,0.06557603962135787,0.06753595233392147,0.06442387424992016,0.06926097056400425,0.0688153885382877,0.07053446120434537,0.066425674131593,0.06909339953582282,0.06756393671797951
2.300999879837036,[2]green.gif,0.054328798273658545,0.06990633248166234,0.07035142276900086,0.07198607289625084,0.0669556563443728,0.06403779256794365,0.06821352311533965,0.06556555665320833,0.06751822740056841,0.06465463365967675,0.06927853903514612,0.06883356050652986,0.07055218613769842,0.06640763627381757,0.0691133149401325,0.06758624375894591
2.300999879837036,[2]green.gif,0.054365276320609605,0.06992086111555829,0.07036503498137414,0.07200183087609183,0.06696969323989073,0.0640569703646863,0.06822563776083443,0.06558401919412842,0.06755575597950887,0.06454799348688048,0.0692700006687642,0.0688233904628027,0.07054431832365016,0.06644156622190073,0.06910263080628286,0.06757236332563916
2.300999879837036,[2]green.gif,0.05435202173614761,0.06989906816471436,0.07034185622237399,0.07197885328279177,0.06694577687332355,0.06403544563477584,0.0682033977751014,0.0655654225427416,0.06751413703133309,0.06448183232329277,0.06926615616871788,0.06882137880580172,0.07054022795441484,0.06640403764296027,0.06910073090800416,0.06757227391866134
2.300999879837036,[2]green.gif,0.05433744839876275,0.06992077170858046,0.07036642078953037,0.07200256848365885,0.06697277778062556,0.06404959428901605,0.06823037633065895,0.06558042056327111,0.06754931867710574,0.06467968996521115,0.06928388110207094,0.06883700267517598,0.07055873519882383,0.06643119501247347,0.06911820997216821,0.06758742840140204
2.300999879837036,[2]green.gif,0.05438058726556149,0.0699101546299642,0.0703524509492458,0.07199049854165299,0.0669565057106621,0.0640468673761925,0.06821131029263858,0.06557615138008015,0.06753912628163412,0.06440322123804346,0.06926226696518266,0.06881561205573225,0.07053546703284586,0.06642281310830273,0.0690950088614236,0.06756302029645685
2.300999879837036,[2]green.gif,0.054339795331930556,0.06990932761541935,0.07035388146089094,0.07198875510558547,0.06695898675429664,0.06403698790514326,0.06821515479268489,0.06556694246136456,0.06752350241225986,0.06463431592396687,0.06928184709332551,0.06883628741935341,0.07055627650693375,0.06640730099765074,0.06911724884715663,0.06758760721535768
2.300999879837036,[2]green.gif,0.05438040845160585,0.06992327510395946,0.07036789600466442,0.07200480365810438,0.06697302364981457,0.06405719388213085,0.06822925874343619,0.06558828837731938,0.06756109804643369,0.06453701878035292,0.06927330872694358,0.06882636324481525,0.07054881102428567,0.0664425273469123,0.06910687763772937,0.0675739950029844
2.300999879837036,[2]green.gif,0.05435930840484004,0.06990347145837206,0.07034661714394297,0.07198307776249382,0.06695058249838144,0.06403808314062157,0.06820686229549197,0.06556794828986505,0.06751896500813544,0.06446283334050576,0.06926924070945271,0.068824239829092,0.07054416186143897,0.06640383647726017,0.06910457540805047,0.06757417381694004
2.300999879837036,[2]green.gif,0.054342075209865,0.06992293982779263,0.07036876772269818,0.07200397664355954,0.06697519176902673,0.06405131537333911,0.0682316503800929,0.0655807781911824,0.06755298436319641,0.06467640425877622,0.06928618333174984,0.06883990840195517,0.07056231147793668,0.06643166439910703,0.06912145097511423,0.06759017766597004
2.300999879837036,[2]green.gif,0.054382330701629004,0.06991444616489961,0.0703572565743037,0.07199517005624415,0.0669611548735088,0.0640540199344182,0.0682160488624631,0.06558366156621713,0.06754516125263706,0.06441808514810624,0.06926606676174006,0.06882077530870143,0.07054145730035988,0.0664288257275612,0.06910010505915941,0.06756941289537106
2.300999879837036,[2]green.gif,0.05434815488435684,0.0699120545282429,0.07035748009174825,0.07199262195737624,0.06696229481247602,0.06404338050405747,0.06821882047877556,0.06557183749340027,0.06752616226985005,0.06464906807530738,0.06928421637823777,0.06883975193974398,0.07055991984127996,0.06641136901514161,0.0691202663326581,0.06759272576483795
2.300999879837036,[2]green.gif,0.05439545117562427,0.06992691843830567,0.0703722545948332,0.0720096986901401,0.06697731518474999,0.0640634747223228,0.06823368438883834,0.06559224463608797,0.06756576956102485,0.06455481076893935,0.06927777907583464,0.0688313923873177,0.07055388487027703,0.06644827174523732,0.06911128093138706,0.06758067817457654
2.300999879837036,[2]green.gif,0.054381190762661784,0.06990642188864016,0.0703499028503779,0.07198703402126241,0.06695359998388291,0.06404239702730144,0.0682086951385373,0.06557127869978889,0.06752263069422611,0.06447885954128021,0.06927279463682111,0.06882792786692712,0.07054742521612944,0.0664100726139632,0.06910739172785184,0.0675796499943316
2.300999879837036,[2]green.gif,0.05437781564924903,0.06992716430749468,0.07037364040298943,0.0720096986901401,0.06697972917315116,0.06405567396350789,0.06823547252839476,0.06558448858076198,0.06755758882255421,0.06468798246240406,0.06929293355857534,0.06884630100086939,0.07056886053906208,0.06643926399222183,0.06912737418739488,0.06759802312827386
2.300999879837036,[2]green.gif,0.05441353373688861,0.06991873769983503,0.07036387269066247,0.07200288140808123,0.0669678603968454,0.06405817735888689,0.06822273203405524,0.06559023297908699,0.06755065978177306,0.06441372655793745,0.0692725487676321,0.06882582680294833,0.07054753697485172,0.06643483834681968,0.06910569299527324,0.06757457614834024
2.300999879837036,[2]green.gif,0.054369523152056114,0.06991507201374436,0.07036134694353902,0.07199682408533384,0.06696701103055609,0.06404320169010183,0.06822266497882187,0.06557436324052372,0.06753087848793012,0.06462521876397356,0.06928897729980675,0.06884276942524545,0.0705645019488933,0.06641273247155338,0.06912453551584906,0.06759487153230566
2.300999879837036,[2]green.gif,0.05441469602760029,0.06992984651682932,0.07037683670244654,0.07201358789367532,0.06698236667899689,0.06406336296360052,0.06823659011561753,0.06559389866517766,0.06757095516573848,0.06454595947813505,0.06928294232880382,0.06883537099783074,0.07055871284707937,0.06645001518130483,0.0691160642047005,0.0675836509565891
2.300999879837036,[2]green.gif,0.05440957747812002,0.06991055696136439,0.07035649661499221,0.07199277841958743,0.06696012669326386,0.0640462191756033,0.0682137466327842,0.06557679958066935,0.06753081143269675,0.06446906947720879,0.06928008130551354,0.06883443222456362,0.07055520362319989,0.06641494529425446,0.06911454428607754,0.06758499206125641
2.300999879837036,[2]green.gif,0.054398803937292566,0.06993398158955355,0.07038099412691523,0.07201595717858758,0.0669872617110326,0.06406085956822152,0.06824253567964264,0.06559052355176491,0.06756442845635753,0.06468588139842527,0.06929903558481164,0.0688517548265165,0.0705754543036764,0.06644170033236746,0.06913358797235346,0.06760258288414274
2.300999879837036,[2]green.gif,0.05442421787073825,0.06992182224056986,0.07036769483896432,0.07200565302439368,0.06697188371084735,0.06406088191996598,0.06822626360967918,0.06559105999363184,0.06755586773823115,0.06442990922092309,0.0692759015293004,0.068829492489039,0.07055214143420951,0.06643760996313214,0.06910902340519708,0.0675788006280423
2.300999879837036,[2]green.gif,0.054379380271360904,0.06992144226091412,0.07036811952210897,0.07200375312611498,0.06697371655389268,0.06405187416695049,0.06822921403994728,0.0655828792551612,0.06753841102581155,0.06465009625555232,0.06929604045105463,0.06885048077708254,0.07057252622515275,0.06642086850653511,0.06913137514965238,0.06760392398881006
2.300999879837036,[2]green.gif,0.05441301964676614,0.06993704377854393,0.07038367633624987,0.0720215004112125,0.06698992156862278,0.0640725718823161,0.06824410030175451,0.06560328639784889,0.06757949353212041,0.0645685347400349,0.06929078779110763,0.06884348468106802,0.07056738532392803,0.06645875471338686,0.06912390966700431,0.06759368688984953
2.300999879837036,[2]green.gif,0.05440269314082779,0.0699165025253895,0.07036112342609446,0.07199863457663472,0.06696613931252234,0.06405312586463999,0.06821937927238694,0.06558265573771664,0.06753447711878742,0.06448122882619248,0.06928211531425897,0.0688368909164537,0.07055768466683443,0.06641863333208958,0.0691165112395896,0.06758926124444738
2.300999879837036,[2]green.gif,0.05439802162623663,0.06993556856340988,0.07038271521123829,0.0720187958501334,0.06698998862385615,0.06406374294325626,0.06824519553723282,0.06559474803146696,0.06756706596220326,0.0647051709538902,0.06930182955286855,0.0688551522916737,0.0705784047339445,0.06644646125393644,0.06913602431249909,0.06760750026792291
2.300999879837036,[2]green.gif,0.05444053464419062,0.06992647140341657,0.07037312631286696,0.07201135271922979,0.06697742694347227,0.06406617928340189,0.06823091277252588,0.06559874899372446,0.06756194741272299,0.06443458073551425,0.06928148946541422,0.06883523688736401,0.07055667883833394,0.06644409196902418,0.06911400784421061,0.06758479089555632
2.300999879837036,[2]green.gif,0.054403050768739074,0.06992519735398262,0.07037194167041083,0.07200715059127219,0.06697738223998335,0.0640525223675397,0.06823176213881518,0.06558464504297316,0.06754160732526866,0.06465099032533053,0.069299102640045,0.06885327474513946,0.07057458258564264,0.06642196374201342,0.0691337667863091,0.06760676266035588
2.300999879837036,[2]green.gif,0.05444040053372389,0.06993932365647837,0.070387610243274,0.07202478611764743,0.06699293905412425,0.06407208014393809,0.06824611195875549,0.065603979301927,0.06758230985192178,0.06457977766749592,0.0692940511457981,0.06884641275959166,0.07057008988500713,0.06645844178896448,0.06912612248970539,0.06759601147127288
2.300999879837036,[2]green.gif,0.054427615335895456,0.06991683780155633,0.07036423031857375,0.07200185322783628,0.06696846389394569,0.06405165064950594,0.06822192737125485,0.06558408624936178,0.06753820986011146,0.06448317342796009,0.0692858033520941,0.06883979664323289,0.07056150681513629,0.06641890155302305,0.06911957342857998,0.06759129525319281
2.300999879837036,[2]green.gif,0.05440365426583937,0.0699380049035555,0.07038626913860668,0.07202290857111318,0.06699372136518018,0.06406383235023408,0.06824801185703419,0.06559655852276784,0.06757146925586095,0.0647073167213579,0.06930627755001516,0.06885872857078655,0.07058298684155784,0.06644697534405891,0.06913993586777877,0.06761078597435784
2.300999879837036,[2]green.gif,0.054442233376769227,0.06992906420577338,0.07037661318500199,0.07201577836463194,0.06698207610631897,0.06406778860900267,0.06823408672023853,0.06560116298212564,0.067567691811048,0.06444059335477273,0.06928591511081637,0.06883885786996577,0.07056208796049213,0.06644690828882555,0.06911832173089048,0.06758872480258045
2.300999879837036,[2]green.gif,0.05440687291704093,0.06992855011565091,0.07037578617045714,0.07201217973377463,0.066982813713886,0.06405728328910867,0.06823703715050664,0.06559059060699828,0.06754699409568239,0.06465633239225535,0.06930397532033626,0.06885796861147507,0.07058048344617884,0.06642721640196042,0.06913872887357818,0.06761232824472525
2.300999879837036,[2]green.gif,0.05445090585361789,0.06994500099957002,0.07039375697299921,0.07203144693749511,0.06700035983328341,0.06407936681263052,0.06825368920012584,0.06561403758693189,0.06758888126479164,0.06459218288566862,0.06930001906156767,0.06885269359978362,0.07057681776008817,0.06646639900999057,0.06913264919908634,0.06760352165740986
2.300999879837036,[2]green.gif,0.05444471442040377,0.06992271631034808,0.07037051115876569,0.0720076423296502,0.06697523647251565,0.06405902672517619,0.0682278058800466,0.06559367514773311,0.06754268020900252,0.06449329876819834,0.06929018429400734,0.06884455756480187,0.07056613362623854,0.06642616586997102,0.06912417788793777,0.06759721846547347
2.300999879837036,[2]green.gif,0.054431996277808696,0.06994015067102322,0.07038966660376389,0.07202590370487019,0.0669969623681262,0.0640674756845803,0.06825125285998021,0.06560216881062612,0.06757441968612905,0.0647241699366772,0.06931047967797276,0.06886342243712217,0.07058739013521553,0.06645265268715056,0.06914440621666983,0.06761637391047166
2.316999912261963,[2]green.gif,0.054473324653306565,0.06993556856340988,0.07038414572288343,0.07202297562634655,0.06698907220233348,0.06407406944919461,0.06824052402264166,0.06560876257524044,0.06757457614834024,0.06445447378807947,0.06929335824171999,0.06884625629738048,0.07056924051871782,0.06645499962031837,0.06912545193737173,0.06759641380267307
2.316999912261963,[2]green.gif,0.05443872415288974,0.06993302046454197,0.07038253639728265,0.07201839351873321,0.06698835694651091,0.06406175363799974,0.06824121692671978,0.06559669263323457,0.06755186677597365,0.06465324785152052,0.06930974207040573,0.06886324362316652,0.07058578080961475,0.06643139617817356,0.06914411564399191,0.06761722327676097
2.316999912261963,[2]green.gif,0.05447810792662,0.06994770556064911,0.07039798145270126,0.07203547025149706,0.06700424903681863,0.06408017147543091,0.06825661727864948,0.06561481989798783,0.0675939998142719,0.06459303225195792,0.06930553994244813,0.06885747687309705,0.07058211512352408,0.06646981882689224,0.06913801361775561,0.06760761202664518
2.316999912261963,[2]green.gif,0.05446773671719274,0.0699281030807618,0.07037688140593545,0.07201421374252007,0.06698151731270759,0.06406300533568923,0.06823323735394923,0.06559754199952388,0.06754871518000545,0.06449555629438833,0.06929501227080968,0.06884922907939305,0.0705708051408297,0.06643054681188426,0.06912889410601784,0.06760119707598651
2.316999912261963,[2]green.gif,0.054456605548453996,0.06994482218561437,0.07039590274046692,0.0720314022340062,0.06700317615308478,0.0640717225160268,0.06825610318852701,0.06560679562172837,0.06758014173270961,0.06472589102100026,0.06931501708209718,0.06886807159996887,0.0705927098503959,0.0664566312976636,0.06914974828359464,0.0676205536866848
2.316999912261963,[2]green.gif,0.05450568997927785,0.06993999420881203,0.0703880125746742,0.07202597076010356,0.06699354255122454,0.06407630462364014,0.06824441322617689,0.06561182476423082,0.06757853240710883,0.06445668661078055,0.06929534754697651,0.06884858087880384,0.07057221330073038,0.06645819591977548,0.0691285141263621,0.06759862662537415
2.316999912261963,[2]green.gif,0.05446496510088028,0.06993454038316493,0.07038537506882847,0.07202047223096755,0.06699144148724574,0.06406278181824468,0.06824443557792134,0.0655997324704805,0.0675531408254076,0.06466102625859096,0.06931012205006147,0.06886445061736711,0.07058701015555979,0.06643318431772999,0.06914550145214814,0.06761816205002809
2.316999912261963,[2]green.gif,0.054503231287387766,0.06995052188045048,0.07040135656611402,0.07203826421955398,0.06700753474325356,0.06408245135336535,0.06825887480483947,0.06561765856953365,0.0675973525759402,0.0646053927666417,0.0693087585936497,0.06886154489058792,0.07058587021659257,0.06647417741706102,0.06914194752477974,0.06761161298890268
2.316999912261963,[2]green.gif,0.054496525764051174,0.06993342279594217,0.0703817093827378,0.07201884055362232,0.0669864123447433,0.06406758744330257,0.06823741713016238,0.06560263819725969,0.06755412430216363,0.06450581574509331,0.06930024257901223,0.06885506288469588,0.07057643778043243,0.0664370288177763,0.06913457144910949,0.06760761202664518
2.316999912261963,[2]green.gif,0.05448087954293246,0.06994799613332703,0.07040057425505808,0.07203634196953082,0.06700787001942039,0.06407614816142895,0.06826039472346243,0.06561086363921924,0.06758420975020048,0.0647361728234497,0.06932047090774428,0.0688734583703826,0.0705980072138318,0.06646092283259902,0.06915517975749728,0.06762683452687675
2.316999912261963,[2]green.gif,0.054515278877649176,0.06994520216527012,0.07039337699334347,0.07203193867587313,0.06699921989431619,0.06408135611788704,0.06824937531344596,0.06561714447941118,0.06758251101762187,0.06447020941617601,0.06929928145400065,0.06885262654455025,0.07057619191124342,0.0664620851233107,0.06913278330955307,0.06760267229112056
2.316999912261963,[2]green.gif,0.05447710209811951,0.06993780373785541,0.07038841490607439,0.07202451789671396,0.06699497306286968,0.06406501699269021,0.06824673780760024,0.06560134179608128,0.06755899698245489,0.0646624567702361,0.06931629113153114,0.06887028442266994,0.07059324629226282,0.06643794523929897,0.06915182699582899,0.06762401820707538
2.316999912261963,[2]green.gif,0.054517335238139064,0.06995836734275429,0.0704082185516618,0.07204581910917987,0.06701479906020154,0.06408826280692373,0.06826560267992052,0.06562402881670341,0.06760206879402027,0.06460778440329842,0.06931412301231897,0.0688663058121569,0.07059072054513937,0.0664778878066406,0.06914699901902664,0.06761621744826048
2.316999912261963,[2]green.gif,0.05451170259853633,0.06993753551692194,0.07038459275777253,0.07202154511470141,0.06698920631280021,0.06406861562354751,0.06823929467669662,0.06560540981357214,0.06755711943592065,0.06449455046588784,0.06930323771276924,0.06885720865216359,0.07057887412057806,0.0664393310474552,0.06913723130669967,0.0676087072621235
2.316999912261963,[2]green.gif,0.05449178719422665,0.06995237707524027,0.07040399407195974,0.07203913593758773,0.0670108204496885,0.06407681871376261,0.0682628087118636,0.06561515517415466,0.06758577437231235,0.06473130014315845,0.06932304135835664,0.06887589471052823,0.07059952713245476,0.06646210747505515,0.06915707965577599,0.06762806387282179
2.7690000534057617,[2]green.gif,0.05452672297081029,0.06994960545892781,0.07039628272012266,0.07203388327764074,0.06700147742050618,0.06408240664987644,0.06825109639776902,0.065619737281768,0.06758503676474532,0.06446994119524255,0.06930169544240182,0.06885492877422915,0.07057815886475549,0.06646414148380059,0.06913450439387613,0.067604706299866
2.7690000534057617,[2]green.gif,0.05449250245004922,0.06994169294139063,0.0703911641706424,0.07202668601592613,0.06699805760360451,0.06406787801598049,0.06824959883089052,0.0656058344967168,0.06756190270923408,0.06467141981976268,0.06931964389319943,0.06887374894306052,0.07059684492312013,0.06644295203005696,0.0691552244609862,0.0676279074106106
2.7690000534057617,[2]green.gif,0.054529002848744734,0.06996140718000021,0.07041087840925198,0.07204809898711431,0.06701844239454775,0.06409081090579163,0.06826879897937763,0.06562896855222804,0.06760633797721123,0.0646264481099186,0.0693182580850432,0.06887032912615886,0.07059554852194172,0.06648284989390968,0.06915164818187335,0.06762088896285164
2.7690000534057617,[2]green.gif,0.054524241927175754,0.06994486688910329,0.07039176766774269,0.07202856356246037,0.06699734234778194,0.06407610345794004,0.06824626842096668,0.06561325527587596,0.06756492019473555,0.06451426470449742,0.06931052438146167,0.06886447296911156,0.07058651841718178,0.06644717650975901,0.06914503206551458,0.06761679859361631
2.7690000534057617,[2]green.gif,0.054496861040218,0.06995928376427696,0.07041054313308515,0.0720455061847575,0.06701837533931439,0.06408359129233257,0.06826964834566693,0.06562107838643531,0.06759095997702598,0.06474960622186735,0.06932891986714838,0.06888139323966423,0.07060574091741334,0.06646760600419116,0.06916362871690139,0.06763452352696937
2.7690000534057617,[2]green.gif,0.05453298145925778,0.06995438873224125,0.07040073071726927,0.072038755957932,0.06700690889440881,0.06408678759178968,0.0682562596507382,0.06562505699694836,0.06759180934331528,0.06447957479710278,0.06930811039306049,0.06886074022778753,0.0705845067601808,0.06647055643445926,0.06914123226895717,0.06761100949180239
2.7690000534057617,[2]green.gif,0.05448367351098937,0.06994886785136079,0.07039769088002334,0.07203316802181817,0.0670047631269411,0.06407368946953887,0.06825581261584909,0.06561213768865319,0.06756771416279246,0.06467112924708476,0.06932523182931326,0.06887873338207405,0.07060178465864475,0.06644719886150346,0.06916070063837775,0.06763282479439077
2.7690000534057617,[2]green.gif,0.05451550239509373,0.0699662128050581,0.07041552757209868,0.07205256933600537,0.06702329272309455,0.0640944318883934,0.06827362695617997,0.06563404239821939,0.06761192591332506,0.06463288541232173,0.06932322017231228,0.0688749559372611,0.07060037649874407,0.06648669439395599,0.0691565208621646,0.06762562753267616
2.7690000534057617,[2]green.gif,0.05451802814221718,0.06994815259553822,0.07039505337417762,0.07203211748982877,0.0670007174611947,0.06407896448123032,0.06825089523206893,0.06561875380501196,0.06757008344770472,0.06451609754754276,0.06931434652976352,0.06886804924822441,0.07059038526897254,0.06645099865806087,0.06914867539986079,0.06762033016924025
2.7690000534057617,[2]green.gif,0.05450924390664624,0.06996362000270129,0.07041492407499839,0.07204984242318183,0.06702257746727198,0.06408710051621205,0.06827360460443552,0.06562702395046043,0.06759683848581773,0.06475070145734566,0.06933423958232875,0.0688867129548446,0.07061083711514915,0.06647183048389321,0.06916850139719265,0.06763923974504944
2.7690000534057617,[2]green.gif,0.054553008622289734,0.06995959668869933,0.07040605043244963,0.0720438521556678,0.06701222860958918,0.0640913249959141,0.06826050648218471,0.06563223190691851,0.06759708435500673,0.06448558741636126,0.06931139609949542,0.06886436121038929,0.07058712191428207,0.066473685678683,0.06914420505096973,0.06761391521858158
2.7690000534057617,[2]green.gif,0.05451311075843701,0.06995094656359513,0.0704000154614467,0.07203504556835241,0.06700706535662,0.06407549996083975,0.06825663963039394,0.0656142834561209,0.06757158101458323,0.06467253740698545,0.06932798109388126,0.06888179557106443,0.07060422099879038,0.0664492328702489,0.06916333814422347,0.0676354623002365
2.7690000534057617,[2]green.gif,0.05454599017453077,0.06997077256092699,0.07042031084541212,0.07205699498140752,0.06702789718245235,0.0640982763884397,0.06827747145622629,0.0656380880639658,0.06761621744826048,0.06464368130489365,0.06932679645142513,0.06887882278905187,0.0706043104057682,0.06648998010039092,0.06916009714127745,0.06762931557051129
2.7690000534057617,[2]green.gif,0.054541475122150795,0.06995049952870602,0.07039786969397899,0.07203466558869667,0.06700335496704042,0.06408106554520912,0.06825248220592525,0.06562089957247967,0.06757383854077322,0.06452506059706933,0.06931693933212034,0.06887082086453687,0.07059317923702946,0.06645359146041768,0.06915111174000642,0.0676226547506636
2.7690000534057617,[2]green.gif,0.054526946488254846,0.06996543049400217,0.070417114545955,0.07205218935634963,0.06702470088299524,0.06408855337960165,0.06827474454340274,0.06562834270338329,0.06759943128817454,0.0647622796609735,0.06933685473643002,0.0688894622194126,0.07061403341460626,0.06647379743740528,0.06917138477222738,0.06764185489915071
2.7690000534057617,[2]green.gif,0.054570197113775865,0.06996265887768971,0.07041005139470713,0.07204794252490312,0.06701602840614658,0.06409452129537122,0.06826403805780865,0.06563594229649809,0.06760233701495373,0.06450096541654651,0.06931662640769796,0.06886932329765837,0.07059297807132936,0.06647864776595208,0.06914945771091673,0.06761896671282848
2.7690000534057617,[2]green.gif,0.05453003102898968,0.06995450049096352,0.07040403877544865,0.07203915828933219,0.06701122278108869,0.06407883037076359,0.06826153466242965,0.06562161482830224,0.06757430792740678,0.06468217100884568,0.06933104328287164,0.0688846565943547,0.0706078643331366,0.06645202683830581,0.06916648974019167,0.06763814450957113
2.7690000534057617,[2]green.gif,0.05456065291889345,0.06997370063945063,0.0704236189035915,0.07205994541167562,0.06703162992377638,0.06410066802509642,0.06828093597661686,0.06564305015123488,0.06762147010820747,0.06465447719746556,0.06933287612591697,0.06888452248388797,0.0706097642314153,0.06649407046962624,0.06916579683611356,0.06763463528569165
2.7690000534057617,[2]green.gif,0.05455931181422613,0.0699579650113541,0.07040589397023844,0.0720419522573891,0.06701184862993344,0.06408794988250135,0.06825976887461768,0.06563071198829555,0.06758054406410981,0.06452526176276943,0.06932322017231228,0.06887658761460634,0.07059930361501021,0.06645846414070894,0.06915734787670945,0.06762837679724416
2.7690000534057617,[2]green.gif,0.05454377735182969,0.0699706160987158,0.07042227779892418,0.07205657029826287,0.06703051233655362,0.0640927778593037,0.06827934900276053,0.06563685871802076,0.06760678501210034,0.06477352258843452,0.06934438727431146,0.0688966594811272,0.07062127537980978,0.06648010062934168,0.06917889495836436,0.06764927567830988
2.7690000534057617,[2]green.gif,0.054639398114609494,0.06997575699994052,0.07042037790064548,0.07205744201629663,0.06702733838884097,0.0641037302140868,0.06827402928758017,0.06564729698268139,0.06761480928835979,0.06452588761161418,0.06932833872179255,0.06888056622511939,0.07060480214414622,0.06648861664397915,0.06916139354245586,0.06763007552982277
2.7690000534057617,[2]green.gif,0.054618968620177344,0.06997117489232718,0.07041867916806688,0.07205303872263893,0.06702698076092968,0.06409291196977043,0.06827532568875858,0.06563495881974206,0.06759214461948211,0.06472419228842166,0.0693483658848245,0.06890155451316292,0.07062574572870084,0.06646841066699155,0.06918416997005582,0.06765531064931281
2.7690000534057617,[2]green.gif,0.05464308615244462,0.0699954712385501,0.07044290845905643,0.07207896674620709,0.06705270761879774,0.0641203375602171,0.06830065021522644,0.06566432901195633,0.06764274896892893,0.06472061600930881,0.06935285858546002,0.06890423672249756,0.07063088662992556,0.06651452231580285,0.0691866286619459,0.06765472950395697
2.7690000534057617,[2]green.gif,0.054642683821044424,0.06998132258430989,0.0704255188018702,0.07206200177216551,0.06703330630461053,0.06410909463275608,0.06827995249986082,0.0656523931804172,0.06760589094232212,0.06460393990325211,0.06934693537317936,0.06890007929802887,0.07062357760948867,0.06648276048693186,0.06918130894676554,0.06765220375683352
2.7690000534057617,[2]green.gif,0.05462142731206743,0.06999828755835147,0.07045028453472668,0.07208475584802101,0.06705950254911215,0.06412145514743986,0.06830809334613006,0.06566415019800069,0.06763552935546986,0.06486225901392209,0.06937295280372534,0.06892475562390753,0.07065028794411277,0.06650683331571022,0.06920732637731151,0.06767777415249039
2.7690000534057617,[2]green.gif,0.05466722603645635,0.07000459075028787,0.07044923400273728,0.0720865663393219,0.06705661917407742,0.06413352508944573,0.06830306420362761,0.06567590721558418,0.0676470628556088,0.06462296123778358,0.06935963116402998,0.06891172455689008,0.07063674278697285,0.06652216661240656,0.0691925295224821,0.06766150208252693
2.7690000534057617,[2]green.gif,0.054627775207492735,0.06999949455255206,0.07044965868588193,0.07208482290325438,0.06705728972641108,0.06412460674340806,0.06830619344785135,0.06566938050620323,0.06762348176520845,0.06480206576610395,0.06937950186485074,0.06893264578970025,0.07065621115639342,0.0665003960133071,0.06921468010123731,0.06768626781538341
2.7690000534057617,[2]green.gif,0.05466186161778708,0.07002466261680873,0.07047406679082713,0.07211034859542234,0.06708274836334567,0.06415022184255384,0.06832979688999616,0.06569405683208189,0.06767397435593299,0.06479565081544528,0.06938394986199735,0.0689351715368237,0.07066119559540696,0.06654389250801712,0.06921720584836076,0.06768575372526094
2.7690000534057617,[2]green.gif,0.05466651078063378,0.07001261502654732,0.07045808529354158,0.07209425533941452,0.06706509048522598,0.06414029766801568,0.06831169197698736,0.0656841997127771,0.0676396644281941,0.06466900583136151,0.0693797700857842,0.06893291401063371,0.07065574176975986,0.06651595282744799,0.06921387543843692,0.06768474789676045
2.7690000534057617,[2]green.gif,0.05464836116413607,0.07002913296569979,0.07048247104674232,0.07211667413910319,0.06709099615704968,0.06415270288618838,0.06833871523603383,0.065697253131539,0.06766762646050768,0.06491744547098224,0.06940516166748543,0.06895691978417871,0.07068191566251703,0.06653837162713666,0.0692398928689829,0.06770946892612802
2.7690000534057617,[2]green.gif,0.05469570215889241,0.07003695607625915,0.07048226988104223,0.07211928929320446,0.06709012443901592,0.06416553278750572,0.06833516130866543,0.06570811607934428,0.06768090339671413,0.0646685587964724,0.06939262233884601,0.06894440280728374,0.07066924222341087,0.06655214030172113,0.06922583362172051,0.06769380035326485
2.7690000534057617,[2]green.gif,0.05466098989975332,0.07003201634073453,0.07048233693627559,0.07211676354608101,0.06709041501169384,0.0641561450548345,0.06833706120694413,0.06569886245713978,0.06765428246906786,0.06484679160675902,0.06940992258905442,0.06896311121739283,0.07068672128757492,0.06652858156306524,0.06924545845335227,0.06771688970528718
2.7690000534057617,[2]green.gif,0.05468584503958762,0.07005396575378964,0.07050417459060843,0.07214009876729235,0.06711345966022726,0.06418017318012395,0.06836061994560003,0.06572449990803002,0.06770464094932567,0.06484364001079082,0.06941497408330131,0.06896648633080558,0.07069284566555567,0.06657406736303179,0.06924847593885373,0.06771706851924282
2.7690000534057617,[2]green.gif,0.05467323865571483,0.07004191816352823,0.0704897353636903,0.07212610657526333,0.06709761227340845,0.06417145599978638,0.06834354321283617,0.06571611800385928,0.06767028631809786,0.06470034297708785,0.06940956496114313,0.06896282064471491,0.07068634130791918,0.0665455018336179,0.06924427381089614,0.06771460982735274
2.7690000534057617,[2]green.gif,0.054652585643838125,0.07005497158229013,0.07051181888721214,0.07214633490399538,0.067121841564398,0.0641810001946688,0.06836935947768205,0.06572606453014189,0.06769670608004404,0.0649527835789661,0.06943446480446634,0.06898660290081536,0.07071202346229832,0.06656711597050619,0.06926991126178637,0.06773962142939823
2.7690000534057617,[2]green.gif,0.054698071443804674,0.07006480634985046,0.07051266825350144,0.07215004529357497,0.06712134982601999,0.06419476886925327,0.0683655820328691,0.06573987790821527,0.06771174880406246,0.06470329340735595,0.06942250662118275,0.06897460001404286,0.07069935002319216,0.06658376802012539,0.06925607553196854,0.06772404226351288
2.7690000534057617,[2]green.gif,0.054653256196171784,0.07005597741079062,0.07051217651512343,0.07214736308424033,0.06712108160508652,0.06418482234297065,0.06836786191080355,0.06573015489937721,0.06768564196653866,0.06487222789194916,0.0694412373830363,0.06899444836311917,0.07071841606121254,0.06656032104019177,0.06927737674443445,0.06774800333356897
2.7690000534057617,[2]green.gif,0.054684727452364856,0.07008056432969145,0.07053586936424605,0.07217215116884126,0.06714582498619855,0.06421043744211644,0.06839206885004864,0.06575568059154517,0.0677353298944628,0.06487294314777173,0.06944581949064964,0.06899735408989836,0.07072304287231479,0.06660540450875813,0.0692797013258578,0.06774771276089105
2.7690000534057617,[2]green.gif,0.05468799080705533,0.07007026017549756,0.07052017843963843,0.07215681787214492,0.06712818945982331,0.06420216729666797,0.06837244401841688,0.06574707516992988,0.06770238342313568,0.06472510870994433,0.06944146090048085,0.06899456012184145,0.07071787961934561,0.06657804597354483,0.06927592388104485,0.06774641635971264
2.7690000534057617,[2]green.gif,0.054662107486976086,0.07008416296054876,0.07054478771028372,0.07217950489276706,0.0671551009601475,0.06421349963110681,0.06840252946645373,0.06575954744333594,0.06772971960660452,0.06497381657049854,0.0694679924211493,0.06901977288958704,0.07074606516910376,0.06660050947672241,0.06930328241625815,0.06777265730770317
2.7690000534057617,[2]green.gif,0.05470926966777678,0.07009361774845335,0.07054391599224996,0.07218180712244596,0.06715346928280226,0.06422615071846852,0.06839872966989632,0.065772019716742,0.06774192365907712,0.0647264721663561,0.06945189916514148,0.06900354552311248,0.07072936841599564,0.06661369700595104,0.06928544572418281,0.06775316658653814
